File: NeXLParticle/Zeppelin/Standards/Ag std.msa
#FORMAT      : EMSA/MAS Spectral Data File
#VERSION     : 1.0
#TITLE       : Ag std
#DATE        : 15-OCT-2018
#TIME        : 10:33
#OWNER       : Unknown
#NPOINTS     : 4096
#NCOLUMNS    : 1
#XUNITS      : eV
#YUNITS      : counts
#DATATYPE    : Y
#XPERCHAN    : 9.99856
#OFFSET      : 1.63032
#BEAMKV      : 20
#SIGNALTYPE  : EDS
#ELEVANGLE   : 35
#AZIMANGLE   : 0
#LIVETIME    : 921.028
#REALTIME    : 1282.59
#PROBECUR    : 0.98647
#TDEADLYR    : 0
#TACTLYR     : 0.045
#TALWIND     : 0.003
#CHOFFSET    : 0.0
#XLABEL      : Energy (eV)
#YLABEL      : Counts
#EDSDET      : SDUTW
##SPECIMEN   : Ag std
##D2STDCMP   : Ag,(Ag:100.0),5.0
##DET_HASH   : 97086dfe-e5c2-9c77-3984-1d0b14bbbf41
##CALIB_HASH : 1a36e884-c26d-3547-51b1-d0bb2efdf95a
##WORKING    : 17.0 mm
##SAMPLE     : <BulkSample id="1">\n<mOrientation id="2">\n<double>0.0</double>\n<double>0.0</double>\n<double>-1.0</double>\n</mOrientation>\n</BulkSample>
#SPECTRUM    :
114171,
261,
54891,
10720,
18327,
17283,
17481,
22288,
27705,
50036,
43823,
42024,
39895,
42722,
40807,
42855,
57872,
48584,
45977,
98936,
62679,
744040,
315604,
342279,
161649,
58367,
23065,
30813,
20866,
19356,
20138,
19659,
19630,
19156,
19468,
19107,
18962,
18509,
18593,
18288,
18023,
17709,
17711,
18512,
18532,
17355,
17157,
15804,
15246,
14759,
14491,
14027,
13383,
13647,
13267,
12948,
12594,
12340,
11872,
11944,
11171,
11287,
10802,
10645,
10307,
10068,
10015,
9548,
9258,
8893,
8635,
9180,
8551,
8048,
8025,
7827,
7603,
7141,
6975,
6691,
6623,
6195,
6158,
5927,
5847,
5905,
5514,
5058,
4994,
4627,
4844,
4499,
4180,
4139,
3942,
3765,
3617,
3578,
3283,
3229,
3096,
2916,
2807,
2655,
2613,
2495,
2353,
2094,
2082,
2068,
1876,
1840,
1719,
1576,
1493,
1453,
1326,
1299,
1165,
1076,
1020,
964,
877,
855,
731,
724,
653,
625,
540,
532,
422,
435,
382,
318,
288,
253,
212,
206,
148,
119,
93,
62,
37,
24,
9,
7,
7,
4,
1,
2,
4,
4,
8,
8,
1,
1,
4,
5,
2,
3,
1,
3,
2,
3,
1,
2,
1,
0,
3,
1,
0,
1,
0,
1,
0,
0,
1,
0,
1,
0,
0,
0,
0,
0,
1,
1,
0,
0,
0,
0,
0,
0,
0,
0,
0,
1,
0,
0,
0,
0,
0,
0,
0,
2,
0,
0,
1,
0,
0,
0,
0,
0,
0,
0,
0,
0,
0,
1,
0,
0,
0,
0,
0,
0,
0,
0,
0,
0,
0,
0,
0,
0,
0,
0,
0,
0,
0,
0,
0,
0,
0,
0,
0,
0,
0,
0,
0,
0,
0,
0,
0,
0,
0,
0,
0,
0,
0,
0,
0,
0,
0,
0,
0,
0,
0,
0,
0,
0,
0,
0,
0,
0,
0,
0,
0,
0,
0,
0,
0,
0,
0,
0,
0,
0,
0,
0,
0,
0,
0,
0,
0,
0,
0,
0,
#ENDOFDATA   :