File: NeXLParticle/Zeppelin/Standards/Ba std.msa
#FORMAT      : EMSA/MAS Spectral Data File
#VERSION     : 1.0
#TITLE       : BaF2 std
#DATE        : 15-OCT-2018
#TIME        : 02:07
#OWNER       : Unknown
#NPOINTS     : 4096
#NCOLUMNS    : 1
#XUNITS      : eV
#YUNITS      : counts
#DATATYPE    : Y
#XPERCHAN    : 9.99856
#OFFSET      : 1.63032
#BEAMKV      : 20
#SIGNALTYPE  : EDS
#ELEVANGLE   : 35
#AZIMANGLE   : 0
#LIVETIME    : 1171.3
#REALTIME    : 1545.87
#PROBECUR    : 0.98986
#TDEADLYR    : 0
#TACTLYR     : 0.045
#TALWIND     : 0.003
#CHOFFSET    : 0.0
#XLABEL      : Energy (eV)
#YLABEL      : Counts
#EDSDET      : SDUTW
##SPECIMEN   : BaF2 std
##D2STDCMP   : BaF2,(F:21.672),(Ba:78.328),5.0
##DET_HASH   : 97086dfe-e5c2-9c77-3984-1d0b14bbbf41
##CALIB_HASH : 1a36e884-c26d-3547-51b1-d0bb2efdf95a
##WORKING    : 17.0 mm
##SAMPLE     : <BulkSample id="1">\n<mOrientation id="2">\n<double>0.0</double>\n<double>0.0</double>\n<double>-1.0</double>\n</mOrientation>\n</BulkSample>
#SPECTRUM    :
146781,
283,
45531,
23923,
119824,
591151,
28483,
36197,
24945,
26378,
28803,
32038,
33865,
38540,
35722,
37891,
39332,
39537,
40249,
43936,
41475,
39647,
41174,
38805,
38305,
36967,
36287,
35212,
54265,
38428,
34094,
70560,
766194,
42892,
147891,
239636,
49668,
141475,
25369,
38407,
43212,
28407,
26043,
19556,
16954,
17105,
18324,
16038,
15858,
15512,
15377,
15007,
14608,
14514,
14060,
13867,
13475,
13307,
13066,
12653,
12374,
11841,
11802,
11589,
11689,
10972,
10916,
10701,
10095,
10122,
9596,
9362,
9193,
8870,
8531,
8756,
8267,
7826,
7569,
7177,
6983,
6933,
6576,
6469,
6326,
6078,
5778,
5694,
5433,
5290,
5220,
4980,
4513,
4547,
4357,
4212,
3928,
3704,
3716,
3428,
3387,
3195,
3004,
2888,
2747,
2585,
2492,
2391,
2276,
2183,
2061,
1903,
1840,
1717,
1562,
1504,
1388,
1291,
1246,
1251,
1061,
1031,
918,
909,
818,
741,
738,
630,
537,
516,
456,
415,
384,
313,
271,
221,
183,
157,
124,
101,
53,
31,
11,
9,
3,
6,
8,
6,
6,
11,
6,
2,
3,
4,
2,
6,
7,
2,
3,
4,
1,
3,
1,
2,
1,
1,
2,
3,
0,
3,
0,
2,
2,
1,
1,
1,
2,
0,
0,
2,
1,
0,
0,
0,
0,
1,
0,
0,
0,
0,
1,
0,
0,
1,
0,
0,
0,
0,
0,
0,
1,
0,
0,
0,
1,
0,
0,
0,
0,
0,
0,
0,
0,
0,
0,
0,
0,
0,
0,
0,
0,
0,
0,
0,
0,
0,
0,
0,
0,
0,
0,
0,
0,
0,
1,
0,
0,
0,
0,
0,
0,
0,
0,
0,
0,
0,
0,
0,
0,
0,
0,
0,
0,
0,
0,
0,
0,
0,
0,
0,
0,
0,
0,
0,
0,
0,
0,
0,
0,
0,
0,
0,
0,
0,
0,
0,
0,
0,
0,
0,
0,
0,
0,
0,
0,
0,
0,
0,
0,
0,
0,
0,
0,
0,
#ENDOFDATA   :