File: NeXLParticle/Zeppelin/Standards/Bi std.msa
#FORMAT      : EMSA/MAS Spectral Data File
#VERSION     : 1.0
#TITLE       : Bi std
#DATE        : 15-OCT-2018
#TIME        : 02:01
#OWNER       : Unknown
#NPOINTS     : 4096
#NCOLUMNS    : 1
#XUNITS      : eV
#YUNITS      : counts
#DATATYPE    : Y
#XPERCHAN    : 9.99856
#OFFSET      : 1.63032
#BEAMKV      : 20
#SIGNALTYPE  : EDS
#ELEVANGLE   : 35
#AZIMANGLE   : 0
#LIVETIME    : 1132
#REALTIME    : 1671.82
#PROBECUR    : 0.98967
#TDEADLYR    : 0
#TACTLYR     : 0.045
#TALWIND     : 0.003
#CHOFFSET    : 0.0
#XLABEL      : Energy (eV)
#YLABEL      : Counts
#EDSDET      : SDUTW
##SPECIMEN   : Bi std
##D2STDCMP   : Bi,(Bi:100.0),5.0
##DET_HASH   : 97086dfe-e5c2-9c77-3984-1d0b14bbbf41
##CALIB_HASH : 1a36e884-c26d-3547-51b1-d0bb2efdf95a
##WORKING    : 17.0 mm
##SAMPLE     : <BulkSample id="1">\n<mOrientation id="2">\n<double>0.0</double>\n<double>0.0</double>\n<double>-1.0</double>\n</mOrientation>\n</BulkSample>
#SPECTRUM    :
141901,
667,
39354,
17323,
25932,
60705,
43651,
48213,
53117,
59183,
65301,
69806,
69224,
91072,
94783,
72989,
98780,
868347,
1139142,
74190,
61421,
37717,
42055,
53502,
37945,
36362,
38131,
36090,
37474,
35639,
35910,
35943,
35769,
35595,
35632,
38202,
36157,
34249,
33810,
35540,
32356,
32061,
31376,
30986,
30511,
31332,
34879,
28253,
28000,
27410,
27385,
26528,
25652,
25664,
24877,
24475,
23959,
22959,
22544,
22180,
22164,
21246,
20773,
20244,
19978,
19550,
19231,
22745,
20143,
17702,
17227,
16668,
16365,
16041,
15661,
16029,
22219,
83937,
62581,
15310,
13200,
12645,
12253,
12288,
12033,
11259,
10994,
10538,
10325,
11010,
11071,
10813,
20195,
38726,
14590,
9943,
9087,
6950,
6648,
6465,
6157,
5987,
5742,
5427,
5313,
5184,
4999,
4763,
5435,
6887,
4739,
4231,
4239,
3548,
3259,
3042,
2981,
2753,
2573,
2458,
2288,
2252,
2049,
1991,
1779,
1601,
1579,
1572,
1266,
1255,
1127,
1009,
984,
854,
776,
676,
625,
542,
461,
366,
283,
219,
132,
62,
24,
18,
23,
13,
21,
17,
23,
9,
16,
17,
14,
19,
16,
11,
10,
8,
7,
5,
6,
6,
3,
6,
1,
8,
5,
10,
6,
2,
7,
6,
5,
3,
4,
3,
3,
2,
4,
1,
1,
6,
1,
3,
4,
4,
1,
1,
2,
1,
1,
1,
0,
1,
3,
1,
0,
2,
1,
2,
2,
1,
3,
0,
0,
1,
0,
0,
0,
0,
1,
0,
0,
0,
1,
0,
0,
0,
0,
1,
0,
0,
0,
1,
0,
0,
0,
0,
0,
1,
1,
0,
0,
0,
0,
0,
0,
0,
0,
0,
0,
0,
0,
0,
0,
0,
0,
0,
0,
0,
0,
0,
0,
0,
0,
0,
0,
0,
0,
0,
0,
0,
0,
0,
0,
0,
0,
0,
0,
0,
0,
0,
0,
0,
0,
0,
0,
0,
0,
0,
0,
0,
0,
0,
0,
0,
0,
0,
0,
0,
0,
0,
#ENDOFDATA   :