File: NeXLParticle/Zeppelin/Standards/Co std.msa
#FORMAT      : EMSA/MAS Spectral Data File
#VERSION     : 1.0
#TITLE       : Co std
#DATE        : 11-OCT-2018
#TIME        : 02:03
#OWNER       : Unknown
#NPOINTS     : 4096
#NCOLUMNS    : 1
#XUNITS      : eV
#YUNITS      : counts
#DATATYPE    : Y
#XPERCHAN    : 9.99856
#OFFSET      : 1.63032
#BEAMKV      : 20
#SIGNALTYPE  : EDS
#ELEVANGLE   : 35
#AZIMANGLE   : 0
#LIVETIME    : 1158.79
#REALTIME    : 1518.71
#PROBECUR    : 0.97271
#TDEADLYR    : 0
#TACTLYR     : 0.045
#TALWIND     : 0.003
#CHOFFSET    : 0.0
#XLABEL      : Energy (eV)
#YLABEL      : Counts
#EDSDET      : SDUTW
##SPECIMEN   : Co std
##D2STDCMP   : Co,(Co:100.0),8.9
##DET_HASH   : 97086dfe-e5c2-9c77-3984-1d0b14bbbf41
##CALIB_HASH : 1a36e884-c26d-3547-51b1-d0bb2efdf95a
##WORKING    : 17.0 mm
##SAMPLE     : <BulkSample id="1">\n<mOrientation id="2">\n<double>0.0</double>\n<double>0.0</double>\n<double>-1.0</double>\n</mOrientation>\n</BulkSample>
#SPECTRUM    :
188852,
137,
21949,
17499,
37621,
308027,
104308,
12917,
16226,
20306,
24182,
27554,
27368,
30158,
29609,
31321,
32740,
32851,
32731,
33283,
32585,
31930,
31413,
30295,
29979,
28882,
28025,
26932,
25927,
25442,
24836,
23468,
23170,
22300,
21337,
20996,
20449,
22445,
19443,
19955,
17788,
17190,
17531,
16672,
15595,
15693,
17077,
15369,
20488,
547635,
489675,
16109,
12929,
14662,
61826,
103713,
10412,
8413,
8142,
8153,
8286,
7731,
7536,
7251,
7080,
7057,
7065,
6599,
6470,
6281,
6019,
6185,
5903,
5731,
5664,
5594,
5202,
5115,
4988,
4705,
4573,
4431,
4237,
4203,
3933,
3711,
3708,
3522,
3381,
3372,
3334,
3144,
2869,
2878,
2730,
2577,
2616,
2342,
2568,
2805,
2294,
2000,
1906,
1819,
1853,
1708,
1659,
1498,
1438,
1362,
1276,
1210,
1073,
1027,
917,
923,
846,
813,
768,
740,
661,
591,
573,
555,
521,
431,
406,
355,
330,
323,
282,
287,
225,
197,
174,
150,
117,
89,
103,
71,
68,
43,
24,
10,
2,
6,
2,
6,
1,
5,
2,
6,
8,
3,
3,
4,
0,
3,
4,
1,
3,
1,
4,
1,
1,
2,
2,
3,
4,
2,
0,
0,
0,
1,
1,
0,
2,
1,
0,
0,
1,
1,
0,
1,
0,
0,
0,
0,
0,
0,
0,
0,
0,
0,
0,
0,
0,
0,
0,
0,
0,
0,
0,
0,
0,
0,
0,
0,
0,
0,
0,
0,
0,
0,
0,
0,
0,
0,
0,
0,
0,
0,
0,
0,
1,
0,
0,
0,
0,
0,
0,
0,
0,
0,
0,
0,
0,
0,
0,
0,
0,
0,
0,
0,
0,
0,
0,
0,
0,
0,
0,
0,
0,
0,
0,
0,
0,
0,
0,
0,
0,
0,
0,
0,
0,
0,
0,
0,
0,
0,
0,
0,
0,
0,
0,
0,
0,
0,
0,
0,
0,
0,
0,
0,
0,
0,
0,
0,
0,
0,
0,
0,
0,
0,
#ENDOFDATA   :