File: NeXLParticle/Zeppelin/Standards/F std.msa
#FORMAT      : EMSA/MAS Spectral Data File
#VERSION     : 1.0
#TITLE       : CaF2 std
#DATE        : 11-OCT-2018
#TIME        : 00:52
#OWNER       : Unknown
#NPOINTS     : 4096
#NCOLUMNS    : 1
#XUNITS      : eV
#YUNITS      : counts
#DATATYPE    : Y
#XPERCHAN    : 9.99856
#OFFSET      : 1.63032
#BEAMKV      : 20
#SIGNALTYPE  : EDS
#ELEVANGLE   : 35
#AZIMANGLE   : 0
#LIVETIME    : 1167.54
#REALTIME    : 1451.98
#PROBECUR    : 0.97401
#TDEADLYR    : 0
#TACTLYR     : 0.045
#TALWIND     : 0.003
#CHOFFSET    : 0.0
#XLABEL      : Energy (eV)
#YLABEL      : Counts
#EDSDET      : SDUTW
##SPECIMEN   : CaF2 std
##D2STDCMP   : CaF2,(F:48.6667),(Ca:51.3333),3.18
##DET_HASH   : 97086dfe-e5c2-9c77-3984-1d0b14bbbf41
##CALIB_HASH : 1a36e884-c26d-3547-51b1-d0bb2efdf95a
##WORKING    : 17.0 mm
##SAMPLE     : <BulkSample id="1">\n<mOrientation id="2">\n<double>0.0</double>\n<double>0.0</double>\n<double>-1.0</double>\n</mOrientation>\n</BulkSample>
#SPECTRUM    :
196810,
166,
65671,
6109,
19281,
322722,
10983,
17045,
18534,
21619,
24786,
26670,
44130,
29825,
42413,
25291,
26664,
24762,
23307,
23111,
22147,
21385,
21079,
20660,
19058,
23352,
798076,
300008,
46612,
143573,
11273,
11850,
10398,
10178,
9839,
9536,
9153,
8989,
8762,
8726,
8355,
7895,
8034,
7625,
7465,
7317,
7347,
6678,
6493,
6225,
6032,
5957,
6351,
7605,
5623,
5683,
5141,
4883,
4808,
4749,
4325,
4187,
4142,
4065,
3906,
3751,
3732,
3587,
3445,
3253,
3149,
3029,
2963,
2883,
2760,
2743,
2735,
2409,
2411,
2433,
2168,
2174,
2021,
1958,
1946,
1809,
1756,
1712,
1613,
1531,
1482,
1456,
1346,
1292,
1274,
1496,
1511,
1031,
1022,
921,
949,
855,
808,
761,
757,
700,
753,
698,
634,
581,
522,
514,
480,
438,
363,
345,
343,
299,
303,
247,
253,
236,
244,
202,
191,
173,
139,
167,
128,
112,
95,
62,
80,
70,
51,
42,
40,
37,
30,
24,
12,
11,
10,
1,
3,
1,
1,
1,
2,
0,
1,
0,
0,
1,
0,
1,
0,
0,
1,
1,
0,
0,
0,
0,
0,
0,
0,
0,
0,
0,
0,
0,
0,
0,
0,
0,
0,
0,
0,
0,
0,
0,
0,
0,
1,
0,
0,
0,
0,
0,
0,
0,
0,
0,
0,
0,
0,
0,
0,
0,
0,
0,
0,
0,
0,
0,
0,
0,
0,
0,
0,
0,
0,
0,
0,
0,
0,
0,
0,
0,
0,
0,
0,
0,
0,
0,
0,
0,
0,
0,
0,
0,
0,
0,
0,
0,
0,
0,
0,
0,
0,
0,
0,
0,
0,
0,
0,
0,
0,
0,
0,
0,
0,
0,
0,
0,
0,
0,
0,
0,
0,
0,
0,
0,
0,
0,
0,
0,
0,
0,
0,
0,
0,
0,
0,
0,
0,
0,
0,
0,
0,
0,
0,
0,
0,
0,
0,
0,
0,
0,
0,
0,
0,
0,
#ENDOFDATA   :