File: NeXLParticle/Zeppelin/Standards/Fe std.msa
#FORMAT      : EMSA/MAS Spectral Data File
#VERSION     : 1.0
#TITLE       : Fe std
#DATE        : 11-OCT-2018
#TIME        : 01:21
#OWNER       : Unknown
#NPOINTS     : 4096
#NCOLUMNS    : 1
#XUNITS      : eV
#YUNITS      : counts
#DATATYPE    : Y
#XPERCHAN    : 9.99856
#OFFSET      : 1.63032
#BEAMKV      : 20
#SIGNALTYPE  : EDS
#ELEVANGLE   : 35
#AZIMANGLE   : 0
#LIVETIME    : 1164.66
#REALTIME    : 1521.64
#PROBECUR    : 0.97436
#TDEADLYR    : 0
#TACTLYR     : 0.045
#TALWIND     : 0.003
#CHOFFSET    : 0.0
#XLABEL      : Energy (eV)
#YLABEL      : Counts
#EDSDET      : SDUTW
##SPECIMEN   : Fe std
##D2STDCMP   : Fe,(Fe:100.0),7.87
##DET_HASH   : 97086dfe-e5c2-9c77-3984-1d0b14bbbf41
##CALIB_HASH : 1a36e884-c26d-3547-51b1-d0bb2efdf95a
##WORKING    : 17.0 mm
##SAMPLE     : <BulkSample id="1">\n<mOrientation id="2">\n<double>0.0</double>\n<double>0.0</double>\n<double>-1.0</double>\n</mOrientation>\n</BulkSample>
#SPECTRUM    :
197982,
177,
40220,
16853,
87432,
680864,
13357,
16150,
18998,
23106,
26667,
28826,
51830,
34783,
30666,
32337,
33731,
33658,
33327,
34621,
32248,
31775,
30947,
30181,
29558,
28443,
27785,
26961,
26135,
25032,
24655,
23236,
22748,
25654,
21548,
20633,
19469,
19158,
19692,
19444,
17769,
16606,
17064,
17232,
18756,
272471,
983429,
27011,
14323,
16831,
112614,
72764,
9487,
9024,
9024,
8791,
8460,
8348,
8155,
8129,
7858,
7582,
7413,
7341,
7191,
6933,
6781,
6561,
6503,
6322,
6119,
5862,
5759,
5539,
5354,
5367,
5166,
4953,
4753,
4578,
4407,
4299,
4137,
4127,
3950,
3641,
3567,
3478,
3298,
3161,
3161,
3733,
3522,
2733,
2650,
2918,
3179,
2341,
2203,
2166,
2009,
1907,
1667,
1680,
1671,
1570,
1452,
1442,
1353,
1293,
1193,
1140,
1020,
965,
901,
934,
804,
769,
759,
657,
654,
556,
540,
490,
434,
441,
401,
371,
324,
309,
249,
222,
214,
174,
144,
115,
114,
94,
77,
74,
59,
22,
22,
8,
4,
6,
4,
3,
7,
3,
3,
2,
3,
5,
1,
2,
1,
7,
2,
4,
1,
2,
1,
2,
3,
0,
1,
0,
0,
1,
0,
1,
0,
1,
0,
0,
0,
0,
1,
2,
0,
0,
0,
0,
0,
0,
0,
0,
0,
0,
0,
0,
0,
0,
0,
0,
0,
0,
0,
0,
0,
0,
0,
0,
0,
0,
0,
0,
0,
0,
0,
0,
0,
0,
0,
0,
0,
0,
0,
0,
0,
0,
0,
0,
0,
0,
0,
0,
0,
0,
0,
0,
0,
0,
0,
0,
0,
0,
0,
0,
0,
0,
0,
0,
0,
0,
0,
0,
0,
0,
0,
0,
0,
0,
0,
0,
0,
0,
0,
0,
0,
0,
0,
0,
0,
0,
0,
0,
0,
0,
0,
0,
0,
0,
0,
0,
0,
0,
0,
0,
0,
0,
0,
0,
0,
0,
0,
0,
0,
0,
0,
0,
0,
0,
#ENDOFDATA   :