File: NeXLParticle/Zeppelin/Standards/K std.msa
#FORMAT      : EMSA/MAS Spectral Data File
#VERSION     : 1.0
#TITLE       : KBr std
#DATE        : 11-OCT-2018
#TIME        : 02:39
#OWNER       : Unknown
#NPOINTS     : 4096
#NCOLUMNS    : 1
#XUNITS      : eV
#YUNITS      : counts
#DATATYPE    : Y
#XPERCHAN    : 9.99856
#OFFSET      : 1.63032
#BEAMKV      : 20
#SIGNALTYPE  : EDS
#ELEVANGLE   : 35
#AZIMANGLE   : 0
#LIVETIME    : 1147.26
#REALTIME    : 1605.11
#PROBECUR    : 0.97392
#TDEADLYR    : 0
#TACTLYR     : 0.045
#TALWIND     : 0.003
#CHOFFSET    : 0.0
#XLABEL      : Energy (eV)
#YLABEL      : Counts
#EDSDET      : SDUTW
##SPECIMEN   : KBr std
##D2STDCMP   : KBr,(K:32.8551),(Br:67.1449),5.0
##DET_HASH   : 97086dfe-e5c2-9c77-3984-1d0b14bbbf41
##CALIB_HASH : 1a36e884-c26d-3547-51b1-d0bb2efdf95a
##WORKING    : 17.0 mm
##SAMPLE     : <BulkSample id="1">\n<mOrientation id="2">\n<double>0.0</double>\n<double>0.0</double>\n<double>-1.0</double>\n</mOrientation>\n</BulkSample>
#SPECTRUM    :
192713,
147,
25405,
7859,
14599,
24419,
35662,
43111,
51163,
108709,
181302,
1290499,
29133,
27007,
23902,
25666,
26787,
27917,
28586,
30039,
29891,
32194,
30299,
122251,
675981,
46096,
95319,
21322,
21231,
21038,
20580,
20307,
20026,
19701,
21462,
20014,
18303,
17609,
17222,
17089,
16017,
15478,
15381,
14736,
14418,
14440,
15250,
13614,
13046,
12270,
12406,
11832,
11331,
11267,
10798,
10359,
9932,
9763,
9491,
9336,
9171,
8740,
8481,
8292,
7965,
7648,
7581,
7324,
7059,
7006,
6789,
6404,
6384,
6286,
5836,
5986,
5660,
5605,
5139,
5035,
5005,
4764,
4719,
4851,
17288,
71218,
19767,
4050,
3541,
3494,
3433,
3334,
3125,
3077,
5660,
11870,
4741,
2634,
2236,
2154,
2038,
1984,
1888,
1734,
1634,
1641,
1665,
1411,
1410,
1348,
1205,
1147,
1146,
1001,
1011,
919,
859,
794,
783,
626,
622,
580,
561,
484,
472,
440,
418,
330,
326,
302,
262,
201,
195,
182,
116,
112,
81,
77,
61,
47,
22,
4,
6,
1,
1,
4,
4,
5,
1,
5,
3,
4,
4,
3,
1,
1,
2,
2,
3,
4,
1,
1,
1,
3,
2,
1,
0,
1,
1,
1,
3,
2,
1,
2,
0,
1,
0,
0,
0,
1,
0,
0,
0,
0,
0,
1,
1,
0,
0,
0,
0,
0,
0,
0,
0,
0,
0,
0,
0,
0,
0,
0,
0,
0,
0,
0,
0,
0,
0,
1,
0,
0,
0,
0,
0,
0,
0,
0,
0,
0,
0,
0,
0,
0,
0,
0,
0,
0,
0,
0,
0,
0,
0,
0,
0,
0,
0,
0,
0,
0,
0,
0,
0,
0,
0,
0,
0,
0,
0,
0,
0,
0,
0,
0,
0,
0,
0,
0,
0,
0,
0,
0,
0,
0,
0,
0,
0,
0,
0,
0,
0,
0,
0,
0,
0,
0,
0,
0,
0,
0,
0,
0,
0,
0,
0,
0,
0,
0,
0,
0,
0,
0,
0,
0,
#ENDOFDATA   :