File: NeXLParticle/Zeppelin/Standards/Mg std.msa
#FORMAT      : EMSA/MAS Spectral Data File
#VERSION     : 1.0
#TITLE       : Mg std
#DATE        : 11-OCT-2018
#TIME        : 00:04
#OWNER       : Unknown
#NPOINTS     : 4096
#NCOLUMNS    : 1
#XUNITS      : eV
#YUNITS      : counts
#DATATYPE    : Y
#XPERCHAN    : 9.99856
#OFFSET      : 1.63032
#BEAMKV      : 20
#SIGNALTYPE  : EDS
#ELEVANGLE   : 35
#AZIMANGLE   : 0
#LIVETIME    : 1149.05
#REALTIME    : 1784.69
#PROBECUR    : 0.97475
#TDEADLYR    : 0
#TACTLYR     : 0.045
#TALWIND     : 0.003
#CHOFFSET    : 0.0
#XLABEL      : Energy (eV)
#YLABEL      : Counts
#EDSDET      : SDUTW
##SPECIMEN   : Mg std
##D2STDCMP   : Mg,(Mg:100.0),1.74
##DET_HASH   : 97086dfe-e5c2-9c77-3984-1d0b14bbbf41
##CALIB_HASH : 1a36e884-c26d-3547-51b1-d0bb2efdf95a
##WORKING    : 17.0 mm
##SAMPLE     : <BulkSample id="1">\n<mOrientation id="2">\n<double>0.0</double>\n<double>0.0</double>\n<double>-1.0</double>\n</mOrientation>\n</BulkSample>
#SPECTRUM    :
201023,
202,
23555,
11696,
37075,
34498,
40272,
56121,
112134,
8389014,
16040,
10696,
11553,
13175,
13254,
13972,
14635,
16256,
67458,
14495,
14132,
13936,
13840,
12926,
13008,
12859,
12218,
12240,
11443,
10927,
10638,
10191,
9953,
9487,
9250,
8903,
8431,
8211,
7929,
7766,
7251,
7121,
7385,
6611,
6375,
6360,
6272,
5864,
5433,
5274,
5146,
5018,
4882,
4524,
4508,
4312,
4061,
4040,
3880,
3679,
3625,
3520,
3575,
3292,
3189,
3024,
2851,
2879,
2772,
2639,
2628,
2482,
2267,
2377,
2268,
2105,
2128,
2007,
1866,
1809,
1791,
1694,
1711,
1503,
1416,
1392,
1338,
1340,
1238,
1235,
1198,
1090,
969,
972,
962,
882,
823,
828,
757,
771,
742,
660,
610,
590,
560,
571,
512,
505,
457,
412,
368,
363,
341,
320,
292,
298,
292,
281,
217,
218,
189,
205,
192,
138,
162,
115,
106,
92,
101,
104,
78,
79,
66,
54,
65,
33,
37,
36,
19,
14,
11,
5,
6,
2,
1,
0,
0,
0,
0,
0,
0,
1,
2,
0,
0,
0,
0,
0,
0,
0,
0,
0,
0,
1,
0,
1,
0,
0,
0,
0,
0,
0,
0,
0,
1,
0,
0,
0,
0,
0,
0,
0,
0,
0,
0,
0,
0,
0,
0,
0,
0,
0,
0,
0,
0,
0,
0,
0,
0,
0,
0,
0,
0,
0,
0,
0,
0,
0,
0,
0,
0,
0,
0,
0,
0,
0,
0,
0,
0,
0,
0,
0,
0,
0,
0,
0,
0,
0,
0,
0,
0,
0,
0,
0,
0,
0,
0,
0,
0,
0,
0,
0,
0,
0,
0,
0,
0,
0,
0,
0,
0,
0,
0,
0,
0,
0,
0,
0,
0,
0,
0,
0,
0,
0,
0,
0,
0,
0,
0,
0,
0,
0,
0,
0,
0,
0,
0,
0,
0,
0,
0,
0,
0,
0,
0,
0,
0,
0,
0,
0,
0,
0,
0,
0,
#ENDOFDATA   :