File: NeXLParticle/Zeppelin/Standards/Mn std.msa
#FORMAT      : EMSA/MAS Spectral Data File
#VERSION     : 1.0
#TITLE       : Mn std
#DATE        : 11-OCT-2018
#TIME        : 01:28
#OWNER       : Unknown
#NPOINTS     : 4096
#NCOLUMNS    : 1
#XUNITS      : eV
#YUNITS      : counts
#DATATYPE    : Y
#XPERCHAN    : 9.99856
#OFFSET      : 1.63032
#BEAMKV      : 20
#SIGNALTYPE  : EDS
#ELEVANGLE   : 35
#AZIMANGLE   : 0
#LIVETIME    : 1165.98
#REALTIME    : 1531.02
#PROBECUR    : 0.97528
#TDEADLYR    : 0
#TACTLYR     : 0.045
#TALWIND     : 0.003
#CHOFFSET    : 0.0
#XLABEL      : Energy (eV)
#YLABEL      : Counts
#EDSDET      : SDUTW
##SPECIMEN   : Mn std
##D2STDCMP   : Mn,(Mn:100.0),5.0
##DET_HASH   : 97086dfe-e5c2-9c77-3984-1d0b14bbbf41
##CALIB_HASH : 1a36e884-c26d-3547-51b1-d0bb2efdf95a
##WORKING    : 17.0 mm
##SAMPLE     : <BulkSample id="1">\n<mOrientation id="2">\n<double>0.0</double>\n<double>0.0</double>\n<double>-1.0</double>\n</mOrientation>\n</BulkSample>
#SPECTRUM    :
195532,
141,
25337,
21956,
259969,
43953,
11344,
15391,
19645,
24290,
27202,
29659,
31921,
33490,
32464,
33997,
34602,
34540,
34160,
34267,
32800,
31914,
31066,
30288,
29235,
28297,
27561,
26660,
25468,
25955,
27853,
23263,
22330,
21558,
21534,
20575,
19979,
19259,
18711,
18518,
19151,
50348,
1412986,
150140,
16349,
19126,
144387,
69613,
9787,
9433,
9525,
9333,
8989,
9007,
8731,
8521,
8594,
8174,
8188,
7779,
7554,
7260,
7205,
7181,
6756,
6782,
6715,
6449,
6362,
6010,
5884,
5633,
5499,
5281,
5159,
5066,
4995,
4653,
4583,
4500,
4324,
4086,
3864,
4036,
5106,
4303,
3465,
3390,
3391,
3333,
3031,
2889,
2699,
2704,
2523,
2485,
2235,
2240,
2126,
1999,
1906,
1786,
1706,
1675,
1622,
1462,
1423,
1390,
1247,
1231,
1154,
1057,
1039,
953,
938,
863,
732,
760,
713,
634,
555,
550,
537,
438,
455,
402,
372,
329,
320,
270,
243,
239,
206,
160,
169,
125,
112,
122,
79,
78,
59,
36,
25,
8,
9,
5,
5,
3,
2,
5,
4,
2,
5,
4,
3,
5,
2,
5,
2,
3,
2,
3,
1,
0,
1,
0,
0,
0,
1,
2,
1,
1,
1,
2,
0,
1,
0,
0,
3,
1,
0,
0,
0,
0,
0,
0,
0,
0,
0,
0,
0,
0,
0,
1,
0,
0,
0,
0,
0,
0,
0,
0,
0,
0,
0,
0,
0,
0,
0,
0,
0,
0,
0,
0,
0,
0,
0,
0,
0,
0,
0,
0,
0,
0,
0,
0,
0,
0,
0,
0,
0,
0,
0,
0,
0,
0,
0,
0,
0,
0,
0,
0,
0,
0,
0,
0,
0,
0,
0,
0,
0,
0,
0,
0,
0,
0,
0,
0,
0,
0,
0,
0,
0,
0,
0,
0,
0,
0,
0,
0,
0,
0,
0,
0,
0,
0,
0,
0,
0,
0,
0,
0,
0,
0,
0,
0,
0,
0,
0,
0,
0,
0,
0,
0,
#ENDOFDATA   :