File: NeXLParticle/Zeppelin/Standards/Na std.msa
#FORMAT      : EMSA/MAS Spectral Data File
#VERSION     : 1.0
#TITLE       : Trimmed[NaF std,352 eV,814 eV]
#DATE        : 11-OCT-2018
#TIME        : 00:11
#OWNER       : Unknown
#NPOINTS     : 4096
#NCOLUMNS    : 1
#XUNITS      : eV
#YUNITS      : counts
#DATATYPE    : Y
#XPERCHAN    : 9.99856
#OFFSET      : 1.63032
#BEAMKV      : 20
#SIGNALTYPE  : EDS
#ELEVANGLE   : 35
#AZIMANGLE   : 0
#LIVETIME    : 1158.62
#REALTIME    : 1458.43
#PROBECUR    : 0.97493
#TDEADLYR    : 0
#TACTLYR     : 0.045
#TALWIND     : 0.003
#CHOFFSET    : 0.0
#XLABEL      : Energy (eV)
#YLABEL      : Counts
#EDSDET      : SDUTW
##SPECIMEN   : Trimmed[NaF std,352 eV,814 eV]
##D2STDCMP   : NaF,(F:45.2465),(Na:54.7535),5.0
##DET_HASH   : 97086dfe-e5c2-9c77-3984-1d0b14bbbf41
##CALIB_HASH : 1a36e884-c26d-3547-51b1-d0bb2efdf95a
##WORKING    : 17.0 mm
##SAMPLE     : <BulkSample id="1">\n<mOrientation id="2">\n<double>0.0</double>\n<double>0.0</double>\n<double>-1.0</double>\n</mOrientation>\n</BulkSample>
#SPECTRUM    :
202075,
163,
29300,
10191.4,
11637.1,
13082.9,
15863,
310664,
81092,
9852,
12389,
12396,
19551,
14258,
13734,
17080,
14791,
14586,
14305,
17587,
14055,
13325,
13001,
12308,
12071,
11528,
11141,
10697,
10156,
9653,
9332,
8838,
8618,
8195,
7998,
7567,
7233,
6963,
6906,
6539,
6097,
6013,
5693,
5503,
5330,
5129,
5166,
4557,
4519,
4364,
4273,
4018,
3773,
3846,
3685,
3425,
3307,
3200,
3052,
2993,
2922,
2811,
2715,
2711,
2570,
2461,
2380,
2256,
2180,
2167,
2102,
2054,
1936,
1834,
1832,
1760,
1633,
1600,
1577,
1484,
1433,
1360,
1303,
1267,
1215,
1125,
1052,
1072,
1016,
981,
1015,
842,
806,
828,
740,
682,
689,
629,
627,
571,
534,
550,
497,
490,
456,
438,
399,
359,
366,
308,
346,
298,
277,
252,
264,
221,
199,
187,
201,
151,
154,
139,
129,
120,
113,
96,
79,
94,
75,
80,
45,
54,
51,
49,
37,
35,
17,
19,
12,
16,
5,
8,
1,
2,
1,
0,
0,
0,
0,
0,
0,
0,
0,
0,
0,
0,
0,
0,
0,
0,
1,
0,
0,
0,
0,
0,
0,
0,
0,
0,
0,
0,
0,
0,
1,
0,
0,
0,
0,
0,
0,
0,
0,
0,
0,
0,
0,
0,
0,
0,
0,
0,
0,
0,
0,
0,
0,
0,
0,
0,
0,
0,
0,
0,
0,
0,
0,
0,
0,
0,
0,
0,
0,
0,
0,
0,
0,
0,
0,
0,
0,
0,
0,
0,
0,
0,
0,
0,
0,
0,
0,
0,
0,
0,
0,
0,
0,
0,
0,
0,
0,
0,
0,
0,
0,
0,
0,
0,
0,
0,
0,
0,
0,
0,
0,
0,
0,
0,
0,
0,
0,
0,
0,
0,
0,
0,
0,
0,
0,
0,
0,
0,
0,
0,
0,
0,
0,
0,
0,
0,
0,
0,
0,
0,
0,
0,
0,
0,
0,
0,
0,
0,
0,
0,
#ENDOFDATA   :