File: NeXLParticle/Zeppelin/Standards/Ni std.msa
#FORMAT      : EMSA/MAS Spectral Data File
#VERSION     : 1.0
#TITLE       : Ni std
#DATE        : 11-OCT-2018
#TIME        : 02:10
#OWNER       : Unknown
#NPOINTS     : 4096
#NCOLUMNS    : 1
#XUNITS      : eV
#YUNITS      : counts
#DATATYPE    : Y
#XPERCHAN    : 9.99856
#OFFSET      : 1.63032
#BEAMKV      : 20
#SIGNALTYPE  : EDS
#ELEVANGLE   : 35
#AZIMANGLE   : 0
#LIVETIME    : 1164.08
#REALTIME    : 1531.02
#PROBECUR    : 0.97258
#TDEADLYR    : 0
#TACTLYR     : 0.045
#TALWIND     : 0.003
#CHOFFSET    : 0.0
#XLABEL      : Energy (eV)
#YLABEL      : Counts
#EDSDET      : SDUTW
##SPECIMEN   : Ni std
##D2STDCMP   : Ni,(Ni:100.0),5.0
##DET_HASH   : 97086dfe-e5c2-9c77-3984-1d0b14bbbf41
##CALIB_HASH : 1a36e884-c26d-3547-51b1-d0bb2efdf95a
##WORKING    : 17.0 mm
##SAMPLE     : <BulkSample id="1">\n<mOrientation id="2">\n<double>0.0</double>\n<double>0.0</double>\n<double>-1.0</double>\n</mOrientation>\n</BulkSample>
#SPECTRUM    :
190403,
132,
18197,
16036,
32321,
163288,
1340465,
18942,
15670,
19612,
22808,
25899,
28705,
29005,
29029,
30999,
32106,
32335,
32811,
33140,
32813,
32079,
31838,
30752,
30380,
29399,
28725,
27854,
27113,
26137,
25375,
24602,
23318,
22657,
22106,
21384,
20465,
20137,
19656,
19680,
18349,
20010,
20476,
17196,
16144,
16494,
18431,
15128,
14263,
13949,
14287,
14547,
23052,
581832,
328480,
13814,
11663,
12062,
22226,
117923,
22400,
7842,
7505,
7583,
7504,
7545,
7152,
6862,
6693,
6645,
6188,
6186,
6057,
5835,
5804,
5747,
5482,
5178,
5033,
4957,
4728,
4617,
4447,
4364,
4269,
3997,
3974,
3788,
3656,
3511,
3513,
3290,
3090,
2927,
2874,
2727,
2634,
2469,
2396,
2270,
2192,
2153,
2060,
1958,
1782,
1760,
1829,
1973,
1530,
1375,
1314,
1249,
1284,
1238,
1106,
944,
881,
875,
812,
747,
744,
693,
608,
564,
543,
505,
444,
415,
365,
318,
287,
293,
231,
225,
170,
153,
136,
104,
97,
74,
68,
52,
21,
9,
6,
6,
2,
2,
6,
1,
3,
5,
1,
1,
1,
5,
5,
2,
4,
2,
5,
4,
3,
3,
0,
1,
5,
1,
0,
0,
0,
1,
1,
2,
1,
1,
1,
0,
0,
1,
1,
0,
0,
1,
0,
0,
0,
0,
0,
0,
0,
0,
0,
0,
0,
0,
0,
0,
0,
0,
0,
0,
0,
0,
0,
0,
0,
0,
0,
0,
0,
0,
0,
0,
0,
0,
0,
0,
0,
0,
0,
0,
0,
0,
0,
0,
0,
0,
0,
0,
0,
0,
0,
0,
0,
0,
0,
0,
0,
0,
0,
0,
0,
0,
0,
0,
0,
0,
0,
0,
0,
0,
0,
0,
0,
0,
0,
0,
0,
0,
0,
0,
0,
0,
0,
0,
0,
0,
0,
0,
0,
0,
0,
0,
0,
0,
0,
0,
0,
0,
0,
0,
0,
0,
0,
0,
0,
0,
0,
0,
0,
0,
0,
0,
#ENDOFDATA   :