File: NeXLParticle/Zeppelin/Standards/O std.msa
#FORMAT      : EMSA/MAS Spectral Data File
#VERSION     : 1.0
#TITLE       : MgO std
#DATE        : 11-OCT-2018
#TIME        : 00:18
#OWNER       : Unknown
#NPOINTS     : 4096
#NCOLUMNS    : 1
#XUNITS      : eV
#YUNITS      : counts
#DATATYPE    : Y
#XPERCHAN    : 9.99856
#OFFSET      : 1.63032
#BEAMKV      : 20
#SIGNALTYPE  : EDS
#ELEVANGLE   : 35
#AZIMANGLE   : 0
#LIVETIME    : 1161.48
#REALTIME    : 1492.12
#PROBECUR    : 0.9748
#TDEADLYR    : 0
#TACTLYR     : 0.045
#TALWIND     : 0.003
#CHOFFSET    : 0.0
#XLABEL      : Energy (eV)
#YLABEL      : Counts
#EDSDET      : SDUTW
##SPECIMEN   : MgO std
##D2STDCMP   : MgO,(O:39.6964),(Mg:60.3036),5.0
##DET_HASH   : 97086dfe-e5c2-9c77-3984-1d0b14bbbf41
##CALIB_HASH : 1a36e884-c26d-3547-51b1-d0bb2efdf95a
##WORKING    : 17.0 mm
##SAMPLE     : <BulkSample id="1">\n<mOrientation id="2">\n<double>0.0</double>\n<double>0.0</double>\n<double>-1.0</double>\n</mOrientation>\n</BulkSample>
#SPECTRUM    :
200298,
138,
14579,
18908,
274530,
11356,
15950,
24739,
50788,
3542980,
13093,
11183,
12284,
16460,
12693,
13463,
13777,
14015,
23225,
13878,
13505,
13048,
12864,
12329,
11508,
11336,
11491,
10646,
10185,
9751,
9344,
8893,
8579,
8219,
8009,
7557,
7284,
6981,
6954,
6596,
6198,
5909,
5713,
5551,
5272,
5277,
5384,
4752,
4660,
4411,
4326,
4151,
3916,
3912,
3804,
3566,
3436,
3225,
3214,
3121,
2992,
2898,
2788,
2674,
2675,
2527,
2466,
2344,
2200,
2142,
2123,
1992,
2016,
1863,
1915,
1815,
1669,
1673,
1567,
1437,
1475,
1388,
1339,
1307,
1213,
1164,
1101,
1093,
985,
954,
959,
881,
768,
773,
782,
732,
756,
670,
604,
579,
565,
520,
514,
450,
417,
420,
412,
382,
380,
348,
303,
291,
287,
255,
220,
227,
224,
179,
177,
175,
141,
134,
130,
117,
97,
95,
90,
79,
66,
64,
60,
64,
46,
42,
30,
33,
25,
19,
16,
6,
12,
2,
0,
0,
0,
0,
1,
0,
0,
0,
0,
0,
0,
0,
2,
0,
0,
0,
0,
0,
0,
0,
0,
0,
0,
0,
0,
0,
0,
0,
0,
0,
0,
0,
0,
0,
0,
0,
0,
0,
0,
0,
0,
0,
0,
0,
0,
0,
0,
0,
0,
0,
0,
0,
0,
0,
0,
0,
0,
0,
0,
0,
0,
0,
0,
0,
0,
0,
0,
0,
0,
0,
0,
0,
0,
0,
0,
0,
0,
0,
0,
0,
0,
0,
0,
0,
0,
0,
0,
0,
0,
0,
0,
0,
0,
0,
0,
0,
0,
0,
0,
0,
0,
0,
0,
0,
0,
0,
0,
0,
0,
0,
0,
0,
0,
0,
0,
0,
0,
0,
0,
0,
0,
0,
0,
0,
0,
0,
0,
0,
0,
0,
0,
0,
0,
0,
0,
0,
0,
0,
0,
0,
0,
0,
0,
0,
0,
0,
0,
0,
0,
0,
0,
0,
#ENDOFDATA   :