File: NeXLParticle/Zeppelin/Standards/S std.msa
#FORMAT      : EMSA/MAS Spectral Data File
#VERSION     : 1.0
#TITLE       : FeS2 std
#DATE        : 11-OCT-2018
#TIME        : 00:31
#OWNER       : Unknown
#NPOINTS     : 4096
#NCOLUMNS    : 1
#XUNITS      : eV
#YUNITS      : counts
#DATATYPE    : Y
#XPERCHAN    : 9.99856
#OFFSET      : 1.63032
#BEAMKV      : 20
#SIGNALTYPE  : EDS
#ELEVANGLE   : 35
#AZIMANGLE   : 0
#LIVETIME    : 1160.73
#REALTIME    : 1580.69
#PROBECUR    : 0.97334
#TDEADLYR    : 0
#TACTLYR     : 0.045
#TALWIND     : 0.003
#CHOFFSET    : 0.0
#XLABEL      : Energy (eV)
#YLABEL      : Counts
#EDSDET      : SDUTW
##SPECIMEN   : FeS2 std
##D2STDCMP   : FeS2,(S:53.4528),(Fe:46.5472),5.0
##DET_HASH   : 97086dfe-e5c2-9c77-3984-1d0b14bbbf41
##CALIB_HASH : 1a36e884-c26d-3547-51b1-d0bb2efdf95a
##WORKING    : 17.0 mm
##SAMPLE     : <BulkSample id="1">\n<mOrientation id="2">\n<double>0.0</double>\n<double>0.0</double>\n<double>-1.0</double>\n</mOrientation>\n</BulkSample>
#SPECTRUM    :
197408,
270,
14106,
10437,
90054,
301849,
17723,
20549,
25418,
29362,
33196,
35371,
35588,
37950,
38143,
41136,
584277,
567838,
97380,
19771,
20663,
21154,
20757,
20343,
19907,
19459,
19537,
19060,
18333,
17944,
17415,
17036,
16631,
23108,
16742,
15194,
14613,
14082,
14263,
14290,
12958,
12603,
12355,
12011,
13036,
121158,
425478,
15798,
10499,
11267,
52811,
34415,
7849,
7906,
7628,
7289,
7038,
6919,
6777,
6481,
6360,
6226,
7969,
6635,
5746,
5389,
5468,
5545,
5154,
4897,
4711,
4512,
4589,
4041,
4195,
4096,
3959,
3705,
3689,
3526,
3376,
3370,
3198,
3196,
2991,
2754,
2675,
2665,
2422,
2489,
2416,
2379,
2150,
1969,
1991,
1871,
1826,
1758,
1673,
1547,
1538,
1367,
1324,
1205,
1228,
1186,
1083,
1054,
956,
917,
883,
801,
748,
755,
669,
644,
564,
548,
530,
435,
457,
387,
370,
345,
337,
310,
270,
261,
210,
203,
176,
161,
140,
132,
88,
97,
83,
61,
52,
49,
40,
24,
15,
7,
4,
3,
4,
1,
3,
3,
3,
2,
1,
1,
1,
0,
0,
2,
0,
2,
1,
1,
1,
0,
0,
1,
1,
0,
2,
0,
0,
0,
1,
0,
0,
0,
0,
0,
0,
0,
0,
0,
1,
0,
0,
0,
1,
0,
2,
0,
0,
0,
0,
0,
0,
0,
0,
0,
0,
1,
0,
0,
0,
0,
0,
0,
0,
0,
0,
0,
0,
0,
0,
0,
0,
0,
0,
0,
0,
0,
0,
0,
0,
0,
0,
0,
0,
0,
0,
0,
0,
0,
0,
0,
0,
0,
0,
0,
0,
0,
0,
0,
0,
0,
0,
0,
0,
0,
0,
0,
0,
0,
0,
0,
0,
0,
0,
0,
0,
0,
0,
0,
0,
0,
0,
0,
0,
0,
0,
0,
0,
0,
0,
0,
0,
0,
0,
0,
0,
0,
0,
0,
0,
0,
0,
0,
0,
0,
0,
0,
0,
0,
0,
0,
#ENDOFDATA   :