File: NeXLParticle/Zeppelin/Standards/Sb std.msa
#FORMAT      : EMSA/MAS Spectral Data File
#VERSION     : 1.0
#TITLE       : Sb std
#DATE        : 15-OCT-2018
#TIME        : 00:28
#OWNER       : Unknown
#NPOINTS     : 4096
#NCOLUMNS    : 1
#XUNITS      : eV
#YUNITS      : counts
#DATATYPE    : Y
#XPERCHAN    : 9.99856
#OFFSET      : 1.63032
#BEAMKV      : 20
#SIGNALTYPE  : EDS
#ELEVANGLE   : 35
#AZIMANGLE   : 0
#LIVETIME    : 1171.54
#REALTIME    : 1628.26
#PROBECUR    : 0.98858
#TDEADLYR    : 0
#TACTLYR     : 0.045
#TALWIND     : 0.003
#CHOFFSET    : 0.0
#XLABEL      : Energy (eV)
#YLABEL      : Counts
#EDSDET      : SDUTW
##SPECIMEN   : Sb std
##D2STDCMP   : Sb,(Sb:100.0),5.0
##DET_HASH   : 97086dfe-e5c2-9c77-3984-1d0b14bbbf41
##CALIB_HASH : 1a36e884-c26d-3547-51b1-d0bb2efdf95a
##WORKING    : 17.0 mm
##SAMPLE     : <BulkSample id="1">\n<mOrientation id="2">\n<double>0.0</double>\n<double>0.0</double>\n<double>-1.0</double>\n</mOrientation>\n</BulkSample>
#SPECTRUM    :
148418,
495,
32868,
154971,
29693,
26122,
23658,
25215,
30479,
35751,
40545,
44626,
46035,
57950,
49336,
57709,
52148,
53619,
51798,
52450,
51002,
51083,
52575,
94273,
53894,
148688,
1159102,
255061,
416839,
163594,
66971,
87146,
31242,
50703,
24818,
23380,
23213,
23265,
23265,
23958,
22525,
22404,
22059,
21967,
21353,
21499,
23142,
20509,
19999,
19427,
19222,
19356,
19050,
19419,
18360,
18023,
16822,
16515,
15954,
15662,
15017,
15024,
14444,
14082,
13695,
13521,
13153,
12792,
12398,
12290,
11692,
11513,
11295,
10897,
10456,
10697,
10197,
9731,
9451,
9065,
8910,
8753,
8191,
8083,
7770,
7636,
7528,
7116,
6877,
6507,
6697,
6239,
5906,
5758,
5425,
5340,
5106,
4811,
4721,
4494,
4238,
4140,
3959,
3685,
3552,
3503,
3332,
3146,
2931,
2779,
2543,
2591,
2479,
2339,
2202,
2043,
2012,
1812,
1772,
1532,
1444,
1396,
1359,
1179,
1165,
1077,
1020,
851,
819,
742,
713,
619,
536,
450,
447,
423,
347,
286,
222,
208,
140,
96,
79,
36,
13,
7,
13,
7,
10,
9,
7,
14,
10,
8,
3,
11,
7,
3,
4,
5,
4,
1,
3,
7,
1,
4,
1,
3,
0,
1,
2,
0,
2,
1,
1,
3,
0,
0,
0,
2,
0,
1,
2,
0,
0,
0,
1,
0,
0,
0,
0,
1,
0,
1,
0,
0,
0,
0,
0,
0,
0,
0,
0,
0,
0,
0,
0,
0,
0,
0,
0,
0,
0,
0,
0,
0,
0,
0,
0,
0,
0,
0,
0,
0,
0,
0,
0,
0,
0,
0,
1,
0,
0,
0,
0,
0,
0,
0,
0,
0,
0,
0,
0,
0,
0,
0,
0,
0,
0,
0,
0,
0,
0,
0,
0,
0,
0,
0,
0,
0,
0,
0,
0,
0,
0,
0,
0,
0,
0,
0,
0,
0,
0,
0,
0,
0,
0,
0,
0,
0,
0,
0,
0,
0,
0,
0,
0,
0,
0,
0,
0,
0,
0,
0,
#ENDOFDATA   :