File: NeXLParticle/Zeppelin/Standards/Ti std.msa
#FORMAT      : EMSA/MAS Spectral Data File
#VERSION     : 1.0
#TITLE       : Ti std
#DATE        : 11-OCT-2018
#TIME        : 01:48
#OWNER       : Unknown
#NPOINTS     : 4096
#NCOLUMNS    : 1
#XUNITS      : eV
#YUNITS      : counts
#DATATYPE    : Y
#XPERCHAN    : 9.99856
#OFFSET      : 1.63032
#BEAMKV      : 20
#SIGNALTYPE  : EDS
#ELEVANGLE   : 35
#AZIMANGLE   : 0
#LIVETIME    : 1160.26
#REALTIME    : 1570.97
#PROBECUR    : 0.9752
#TDEADLYR    : 0
#TACTLYR     : 0.045
#TALWIND     : 0.003
#CHOFFSET    : 0.0
#XLABEL      : Energy (eV)
#YLABEL      : Counts
#EDSDET      : SDUTW
##SPECIMEN   : Ti std
##D2STDCMP   : Ti,(Ti:100.0),5.0
##DET_HASH   : 97086dfe-e5c2-9c77-3984-1d0b14bbbf41
##CALIB_HASH : 1a36e884-c26d-3547-51b1-d0bb2efdf95a
##WORKING    : 17.0 mm
##SAMPLE     : <BulkSample id="1">\n<mOrientation id="2">\n<double>0.0</double>\n<double>0.0</double>\n<double>-1.0</double>\n</mOrientation>\n</BulkSample>
#SPECTRUM    :
190333,
157,
19034,
177567,
14346,
10060,
13969,
18903,
24112,
28341,
31621,
34469,
35033,
37155,
35200,
35602,
35372,
34994,
33949,
34665,
46327,
31099,
30243,
30522,
28051,
27156,
26402,
25684,
25398,
23404,
24031,
39275,
1952905,
265950,
26331,
257213,
52207,
11303,
11460,
11463,
11038,
10791,
10639,
10715,
10187,
10025,
10595,
9658,
9539,
9139,
9175,
8726,
8509,
8488,
8058,
7845,
7687,
7549,
7259,
7133,
7009,
6806,
6495,
6456,
8988,
8537,
6030,
6295,
6160,
5370,
5255,
5017,
4890,
4735,
4507,
4556,
4401,
4083,
3907,
3826,
3719,
3659,
3380,
3313,
3220,
3171,
2990,
2940,
2743,
2651,
2609,
2478,
2315,
2250,
2163,
1990,
1957,
1835,
1818,
1669,
1643,
1562,
1484,
1434,
1332,
1245,
1277,
1137,
1091,
1006,
911,
898,
869,
795,
757,
705,
660,
587,
563,
539,
517,
463,
459,
406,
389,
373,
308,
261,
267,
244,
190,
175,
178,
142,
133,
112,
99,
72,
54,
52,
29,
35,
15,
10,
5,
5,
5,
3,
6,
5,
2,
4,
3,
2,
0,
2,
0,
2,
2,
3,
2,
2,
2,
2,
1,
2,
1,
2,
1,
0,
0,
0,
0,
1,
0,
0,
1,
0,
0,
0,
0,
0,
0,
0,
0,
0,
0,
0,
0,
0,
1,
0,
0,
0,
0,
0,
0,
0,
0,
0,
0,
0,
0,
0,
0,
1,
0,
0,
0,
0,
0,
0,
0,
0,
0,
0,
0,
0,
0,
0,
0,
0,
0,
0,
0,
0,
0,
0,
0,
0,
0,
0,
0,
0,
0,
0,
0,
0,
0,
0,
1,
0,
0,
0,
0,
0,
0,
0,
0,
0,
0,
0,
0,
0,
0,
0,
0,
0,
0,
0,
0,
0,
0,
0,
0,
0,
0,
0,
0,
0,
0,
0,
0,
0,
0,
0,
0,
0,
0,
0,
0,
0,
0,
0,
0,
0,
0,
0,
0,
0,
0,
0,
0,
0,
#ENDOFDATA   :