File: NeXLParticle/Zeppelin/Standards/V std.msa
#FORMAT      : EMSA/MAS Spectral Data File
#VERSION     : 1.0
#TITLE       : V std
#DATE        : 11-OCT-2018
#TIME        : 01:41
#OWNER       : Unknown
#NPOINTS     : 4096
#NCOLUMNS    : 1
#XUNITS      : eV
#YUNITS      : counts
#DATATYPE    : Y
#XPERCHAN    : 9.99856
#OFFSET      : 1.63032
#BEAMKV      : 20
#SIGNALTYPE  : EDS
#ELEVANGLE   : 35
#AZIMANGLE   : 0
#LIVETIME    : 1161.73
#REALTIME    : 1557.45
#PROBECUR    : 0.97515
#TDEADLYR    : 0
#TACTLYR     : 0.045
#TALWIND     : 0.003
#CHOFFSET    : 0.0
#XLABEL      : Energy (eV)
#YLABEL      : Counts
#EDSDET      : SDUTW
##SPECIMEN   : V std
##D2STDCMP   : V,(V:100.0),5.0
##DET_HASH   : 97086dfe-e5c2-9c77-3984-1d0b14bbbf41
##CALIB_HASH : 1a36e884-c26d-3547-51b1-d0bb2efdf95a
##WORKING    : 17.0 mm
##SAMPLE     : <BulkSample id="1">\n<mOrientation id="2">\n<double>0.0</double>\n<double>0.0</double>\n<double>-1.0</double>\n</mOrientation>\n</BulkSample>
#SPECTRUM    :
190543,
135,
17361,
183022,
45427,
9276,
12569,
17716,
22797,
27073,
29794,
32977,
33948,
36047,
34604,
34931,
35304,
35206,
33973,
33276,
32362,
31324,
30861,
43029,
28970,
27466,
27509,
25838,
24806,
24243,
23791,
22896,
21831,
21940,
29864,
1220746,
530314,
21113,
58041,
231493,
13673,
10699,
10919,
10617,
10189,
10403,
10685,
9924,
9743,
9439,
9318,
9059,
8947,
8673,
8422,
8255,
7999,
7771,
7726,
7316,
7288,
7120,
6879,
6581,
6406,
6254,
6020,
5812,
5851,
5661,
6338,
8358,
5336,
5047,
5537,
5098,
4544,
4348,
4187,
4077,
4032,
3785,
3588,
3483,
3428,
3341,
3098,
3021,
2901,
2817,
2777,
2664,
2535,
2387,
2288,
2134,
2077,
1917,
1898,
1876,
1672,
1646,
1569,
1467,
1381,
1378,
1251,
1248,
1161,
1076,
1067,
934,
905,
842,
786,
769,
714,
626,
634,
542,
564,
508,
463,
430,
397,
374,
361,
299,
293,
246,
200,
182,
190,
167,
126,
89,
102,
85,
67,
58,
28,
27,
23,
7,
5,
3,
6,
3,
3,
3,
3,
3,
0,
3,
4,
3,
2,
1,
4,
0,
1,
1,
3,
0,
2,
0,
0,
2,
1,
3,
0,
0,
2,
0,
0,
0,
0,
0,
1,
0,
0,
0,
1,
0,
0,
0,
0,
0,
0,
0,
0,
0,
0,
1,
0,
0,
0,
0,
0,
0,
0,
0,
0,
0,
0,
0,
0,
0,
0,
0,
0,
0,
0,
0,
0,
0,
0,
0,
0,
0,
0,
0,
0,
0,
0,
0,
1,
0,
0,
0,
0,
0,
0,
0,
0,
0,
0,
0,
0,
0,
0,
0,
0,
0,
0,
0,
0,
0,
0,
0,
0,
0,
0,
0,
0,
0,
0,
0,
0,
0,
0,
0,
0,
0,
0,
0,
0,
0,
0,
0,
0,
0,
0,
0,
0,
0,
0,
0,
0,
0,
0,
0,
0,
0,
0,
0,
0,
0,
0,
0,
0,
0,
0,
0,
#ENDOFDATA   :