File: NeXLParticle/Zeppelin/Standards/W std.msa
#FORMAT      : EMSA/MAS Spectral Data File
#VERSION     : 1.0
#TITLE       : W std
#DATE        : 11-OCT-2018
#TIME        : 01:14
#OWNER       : Unknown
#NPOINTS     : 4096
#NCOLUMNS    : 1
#XUNITS      : eV
#YUNITS      : counts
#DATATYPE    : Y
#XPERCHAN    : 9.99856
#OFFSET      : 1.63032
#BEAMKV      : 20
#SIGNALTYPE  : EDS
#ELEVANGLE   : 35
#AZIMANGLE   : 0
#LIVETIME    : 1123.9
#REALTIME    : 1695.37
#PROBECUR    : 0.97513
#TDEADLYR    : 0
#TACTLYR     : 0.045
#TALWIND     : 0.003
#CHOFFSET    : 0.0
#XLABEL      : Energy (eV)
#YLABEL      : Counts
#EDSDET      : SDUTW
##SPECIMEN   : W std
##D2STDCMP   : W,(W:100.0),5.0
##DET_HASH   : 97086dfe-e5c2-9c77-3984-1d0b14bbbf41
##CALIB_HASH : 1a36e884-c26d-3547-51b1-d0bb2efdf95a
##WORKING    : 17.0 mm
##SAMPLE     : <BulkSample id="1">\n<mOrientation id="2">\n<double>0.0</double>\n<double>0.0</double>\n<double>-1.0</double>\n</mOrientation>\n</BulkSample>
#SPECTRUM    :
190813,
217,
24513,
15325,
25394,
35213,
45624,
57682,
66975,
75394,
208026,
83898,
167649,
1755568,
48046,
43746,
37833,
39389,
33848,
34076,
35481,
35147,
36716,
37197,
37299,
39614,
41223,
38176,
37955,
37967,
37544,
37456,
36919,
36315,
35371,
35253,
34760,
33987,
33890,
34563,
32150,
31467,
31101,
30458,
29646,
29931,
32474,
28215,
27448,
26673,
26461,
25357,
28025,
36749,
24500,
23333,
22852,
22417,
23053,
63098,
285937,
46487,
22117,
19836,
18642,
18189,
18060,
18829,
37162,
110854,
49552,
63631,
27867,
16976,
13595,
13071,
12759,
12019,
12405,
11949,
19352,
22310,
12550,
14426,
11413,
9604,
9755,
8987,
8623,
8220,
8248,
7810,
7651,
7243,
7017,
6604,
6425,
6204,
5880,
5861,
5610,
5339,
5160,
4801,
4695,
4594,
4396,
4205,
4004,
3777,
3511,
3495,
3186,
3171,
3021,
2803,
2575,
2369,
2380,
2169,
2150,
1979,
1948,
1757,
1617,
1514,
1439,
1346,
1236,
1082,
1041,
974,
782,
708,
679,
613,
540,
448,
356,
301,
282,
212,
129,
57,
29,
18,
23,
19,
20,
13,
17,
21,
16,
12,
15,
9,
18,
7,
11,
6,
11,
4,
7,
3,
4,
5,
8,
5,
6,
3,
4,
6,
5,
3,
5,
5,
3,
4,
2,
3,
0,
2,
2,
2,
0,
1,
2,
2,
1,
2,
4,
2,
1,
1,
1,
0,
0,
0,
1,
1,
0,
0,
1,
0,
2,
0,
0,
0,
0,
1,
0,
0,
0,
1,
0,
0,
1,
0,
0,
0,
0,
0,
0,
0,
0,
0,
0,
0,
0,
0,
0,
0,
0,
0,
0,
0,
0,
0,
1,
0,
0,
0,
0,
0,
0,
0,
0,
0,
0,
0,
0,
0,
0,
0,
0,
0,
0,
0,
0,
0,
0,
0,
0,
0,
0,
0,
0,
0,
0,
0,
0,
0,
0,
0,
0,
0,
0,
0,
0,
0,
0,
0,
0,
0,
0,
0,
0,
0,
0,
0,
0,
0,
0,
0,
#ENDOFDATA   :