File: NeXLSpectrum/Zepellin/Standards/Al std.msa
#FORMAT      : EMSA/MAS Spectral Data File
#VERSION     : 1.0
#TITLE       : Al std
#DATE        : 11-OCT-2018
#TIME        : 11:56
#OWNER       : Unknown
#NPOINTS     : 4096
#NCOLUMNS    : 1
#XUNITS      : eV
#YUNITS      : counts
#DATATYPE    : Y
#XPERCHAN    : 9.99856
#OFFSET      : 1.63032
#BEAMKV      : 20
#SIGNALTYPE  : EDS
#ELEVANGLE   : 35
#AZIMANGLE   : 0
#LIVETIME    : 1151.25
#REALTIME    : 1808.52
#PROBECUR    : 0.97396
#TDEADLYR    : 0
#TACTLYR     : 0.045
#TALWIND     : 0.003
#CHOFFSET    : 0.0
#XLABEL      : Energy (eV)
#YLABEL      : Counts
#EDSDET      : SDUTW
##SPECIMEN   : Al std
##D2STDCMP   : Al,(Al:100.0),1.0
##DET_HASH   : 97086dfe-e5c2-9c77-3984-1d0b14bbbf41
##CALIB_HASH : 1a36e884-c26d-3547-51b1-d0bb2efdf95a
##WORKING    : 17.0 mm
##SAMPLE     : <BulkSample id="1">\n<mOrientation id="2">\n<double>0.0</double>\n<double>0.0</double>\n<double>-1.0</double>\n</mOrientation>\n</BulkSample>
#SPECTRUM    :
199436,
138,
10275,
9469,
27592,
26385,
35219,
43223,
50925,
70930,
384239,
2483838,
11697,
11114,
11978,
12613,
13457,
13768,
14545,
14836,
15185,
48798,
18117,
13569,
13359,
12924,
12518,
12435,
12198,
11619,
11420,
10906,
10682,
10284,
9803,
9498,
9222,
8955,
8631,
8496,
8086,
7713,
7574,
7191,
6823,
6592,
6867,
6191,
6164,
5782,
5571,
5527,
5220,
5203,
4903,
4640,
4563,
4493,
4362,
4200,
3901,
3876,
3639,
3588,
3467,
3452,
3300,
3149,
2997,
2990,
2931,
2790,
2670,
2552,
2526,
2469,
2418,
2263,
2122,
2018,
1945,
1882,
1787,
1771,
1684,
1649,
1497,
1539,
1482,
1353,
1380,
1294,
1248,
1174,
1089,
1005,
994,
961,
916,
802,
836,
760,
730,
734,
651,
618,
591,
575,
520,
533,
464,
444,
395,
359,
319,
352,
322,
296,
280,
272,
200,
218,
168,
198,
181,
173,
144,
128,
100,
107,
91,
86,
90,
74,
57,
43,
42,
29,
27,
16,
25,
8,
13,
2,
3,
2,
0,
1,
1,
0,
0,
1,
1,
0,
0,
0,
0,
0,
1,
0,
0,
0,
0,
0,
0,
0,
1,
0,
0,
0,
0,
0,
0,
1,
0,
0,
1,
0,
0,
0,
0,
0,
0,
0,
0,
0,
0,
0,
0,
0,
0,
0,
0,
0,
0,
0,
0,
0,
0,
1,
0,
0,
0,
0,
0,
0,
0,
0,
0,
0,
0,
0,
0,
0,
0,
0,
0,
0,
0,
0,
0,
0,
0,
0,
0,
0,
0,
0,
0,
0,
0,
0,
0,
0,
0,
0,
0,
0,
0,
0,
0,
0,
0,
0,
0,
0,
0,
0,
0,
0,
0,
0,
0,
0,
0,
0,
0,
0,
0,
0,
0,
0,
0,
0,
0,
0,
0,
0,
0,
0,
0,
0,
0,
0,
0,
0,
0,
0,
0,
0,
0,
0,
0,
0,
0,
0,
0,
0,
0,
0,
0,
0,
0,
0,
#ENDOFDATA   :