File: NeXLSpectrum/Zepellin/Standards/C std.msa
#FORMAT      : EMSA/MAS Spectral Data File
#VERSION     : 1.0
#TITLE       : C std
#DATE        : 11-OCT-2018
#TIME        : 11:35
#OWNER       : Unknown
#NPOINTS     : 4096
#NCOLUMNS    : 1
#XUNITS      : eV
#YUNITS      : counts
#DATATYPE    : Y
#XPERCHAN    : 9.99856
#OFFSET      : 1.63032
#BEAMKV      : 20
#SIGNALTYPE  : EDS
#ELEVANGLE   : 35
#AZIMANGLE   : 0
#LIVETIME    : 1184.6
#REALTIME    : 1332.33
#PROBECUR    : 0.97372
#TDEADLYR    : 0
#TACTLYR     : 0.045
#TALWIND     : 0.003
#CHOFFSET    : 0.0
#XLABEL      : Energy (eV)
#YLABEL      : Counts
#EDSDET      : SDUTW
##SPECIMEN   : C std
##D2STDCMP   : C,(C:100.0),1.9
##DET_HASH   : 97086dfe-e5c2-9c77-3984-1d0b14bbbf41
##CALIB_HASH : 1a36e884-c26d-3547-51b1-d0bb2efdf95a
##WORKING    : 17.0 mm
##SAMPLE     : <BulkSample id="1">\n<mOrientation id="2">\n<double>0.0</double>\n<double>0.0</double>\n<double>-1.0</double>\n</mOrientation>\n</BulkSample>
#SPECTRUM    :
194774,
917,
1402981,
7915,
9576,
5472,
7636,
10691,
13215,
15145,
15889,
15663,
18647,
15168,
13029,
12744,
12132,
11251,
10387,
9762,
9315,
8642,
8236,
7729,
7389,
6866,
6586,
6316,
5972,
5694,
5178,
5029,
4682,
4526,
4316,
3949,
3902,
3762,
3539,
3694,
3218,
3138,
3054,
2943,
2739,
2900,
3038,
2445,
2295,
2238,
2206,
2063,
1942,
2036,
1880,
1786,
1725,
1671,
1548,
1558,
1537,
1435,
1361,
1295,
1201,
1242,
1183,
1133,
1022,
1047,
1001,
970,
911,
885,
857,
803,
791,
746,
693,
681,
647,
647,
583,
577,
525,
564,
489,
469,
458,
452,
430,
420,
383,
392,
357,
384,
400,
288,
279,
289,
209,
245,
212,
206,
181,
179,
181,
169,
171,
157,
140,
108,
123,
108,
109,
99,
84,
97,
80,
66,
59,
69,
55,
53,
53,
54,
38,
30,
25,
17,
24,
24,
12,
18,
17,
14,
13,
4,
8,
6,
3,
8,
1,
3,
0,
0,
0,
0,
0,
0,
0,
0,
0,
0,
0,
0,
0,
0,
0,
0,
0,
0,
0,
0,
0,
0,
0,
0,
0,
0,
0,
0,
0,
0,
0,
0,
0,
0,
0,
0,
0,
0,
0,
0,
0,
0,
0,
0,
0,
0,
0,
0,
0,
0,
0,
0,
0,
0,
0,
0,
0,
0,
0,
0,
0,
0,
0,
0,
0,
0,
0,
0,
0,
0,
0,
0,
0,
0,
0,
0,
0,
0,
0,
0,
0,
0,
0,
0,
0,
0,
0,
0,
0,
0,
0,
0,
0,
0,
0,
0,
0,
0,
0,
0,
0,
0,
0,
0,
0,
0,
0,
0,
0,
0,
0,
0,
0,
0,
0,
0,
0,
0,
0,
0,
0,
0,
0,
0,
0,
0,
0,
0,
0,
0,
0,
0,
0,
0,
0,
0,
0,
0,
0,
0,
0,
0,
0,
0,
0,
0,
0,
0,
0,
0,
#ENDOFDATA   :