File: NeXLSpectrum/Zepellin/Standards/Ce std.msa
#FORMAT      : EMSA/MAS Spectral Data File
#VERSION     : 1.0
#TITLE       : Trimmed[CeO2 std,419 eV,601 eV]
#DATE        : 15-OCT-2018
#TIME        : 00:01
#OWNER       : Unknown
#NPOINTS     : 4096
#NCOLUMNS    : 1
#XUNITS      : eV
#YUNITS      : counts
#DATATYPE    : Y
#XPERCHAN    : 9.99856
#OFFSET      : 1.63032
#BEAMKV      : 20
#SIGNALTYPE  : EDS
#ELEVANGLE   : 35
#AZIMANGLE   : 0
#LIVETIME    : 1171.78
#REALTIME    : 1518.83
#PROBECUR    : 0.98838
#TDEADLYR    : 0
#TACTLYR     : 0.045
#TALWIND     : 0.003
#CHOFFSET    : 0.0
#XLABEL      : Energy (eV)
#YLABEL      : Counts
#EDSDET      : SDUTW
##SPECIMEN   : Trimmed[CeO2 std,419 eV,601 eV]
##D2STDCMP   : CeO2,(O:18.5915),(Ce:81.4085),5.0
##DET_HASH   : 97086dfe-e5c2-9c77-3984-1d0b14bbbf41
##CALIB_HASH : 1a36e884-c26d-3547-51b1-d0bb2efdf95a
##WORKING    : 17.0 mm
##SAMPLE     : <BulkSample id="1">\n<mOrientation id="2">\n<double>0.0</double>\n<double>0.0</double>\n<double>-1.0</double>\n</mOrientation>\n</BulkSample>
#SPECTRUM    :
148893,
309,
43033,
25607.9,
40584.7,
98614,
100794,
26816,
38729,
27519,
29045,
31328,
33057,
35327,
34963,
36647,
37986,
38458,
39321,
39257,
39394,
39643,
42962,
38192,
37648,
38261,
36386,
35150,
34494,
33321,
37771,
48575,
31776,
32535,
221618,
385022,
31292,
104870,
250550,
48649,
126706,
34299,
21502,
51745,
27048,
31590,
22730,
18260,
15533,
15342,
15019,
14858,
14400,
14533,
13972,
13701,
13545,
13198,
12996,
12856,
12302,
12058,
11686,
11273,
10994,
11003,
10856,
10451,
10132,
10183,
9728,
9543,
9425,
9163,
8777,
8880,
8364,
7966,
7801,
7435,
7263,
6997,
6669,
6408,
6209,
6035,
5831,
5713,
5533,
5329,
5320,
4831,
4716,
4448,
4316,
4217,
3967,
3885,
3738,
3420,
3373,
3201,
3069,
2853,
2805,
2669,
2578,
2396,
2187,
2060,
2091,
1909,
1816,
1684,
1617,
1444,
1337,
1352,
1145,
1194,
999,
944,
856,
831,
727,
711,
621,
554,
487,
448,
398,
330,
345,
276,
223,
171,
132,
91,
51,
22,
13,
4,
6,
7,
10,
5,
9,
6,
4,
9,
5,
3,
6,
2,
3,
2,
4,
2,
2,
10,
3,
1,
2,
3,
3,
0,
3,
0,
1,
1,
2,
0,
1,
1,
1,
2,
0,
0,
1,
0,
1,
0,
1,
0,
0,
1,
0,
0,
0,
0,
0,
0,
0,
0,
0,
1,
1,
0,
0,
0,
0,
0,
0,
0,
0,
0,
1,
0,
0,
0,
0,
0,
0,
0,
0,
0,
0,
0,
0,
0,
0,
0,
0,
0,
0,
0,
0,
0,
0,
0,
0,
0,
0,
0,
0,
0,
0,
0,
0,
0,
0,
0,
0,
0,
0,
0,
0,
0,
0,
0,
0,
0,
0,
0,
0,
0,
0,
0,
0,
0,
0,
0,
0,
0,
0,
0,
0,
0,
0,
0,
0,
0,
0,
0,
0,
0,
0,
0,
0,
0,
0,
0,
0,
0,
0,
0,
0,
0,
0,
0,
0,
0,
0,
0,
#ENDOFDATA   :