File: NeXLSpectrum/Zepellin/Standards/Cl std.msa
#FORMAT      : EMSA/MAS Spectral Data File
#VERSION     : 1.0
#TITLE       : NaCl std
#DATE        : 11-OCT-2018
#TIME        : 00:38
#OWNER       : Unknown
#NPOINTS     : 4096
#NCOLUMNS    : 1
#XUNITS      : eV
#YUNITS      : counts
#DATATYPE    : Y
#XPERCHAN    : 9.99856
#OFFSET      : 1.63032
#BEAMKV      : 20
#SIGNALTYPE  : EDS
#ELEVANGLE   : 35
#AZIMANGLE   : 0
#LIVETIME    : 1156.51
#REALTIME    : 1587.85
#PROBECUR    : 0.97454
#TDEADLYR    : 0
#TACTLYR     : 0.045
#TALWIND     : 0.003
#CHOFFSET    : 0.0
#XLABEL      : Energy (eV)
#YLABEL      : Counts
#EDSDET      : SDUTW
##SPECIMEN   : NaCl std
##D2STDCMP   : NaCl,(Na:39.3372),(Cl:60.6628),5.0
##DET_HASH   : 97086dfe-e5c2-9c77-3984-1d0b14bbbf41
##CALIB_HASH : 1a36e884-c26d-3547-51b1-d0bb2efdf95a
##WORKING    : 17.0 mm
##SAMPLE     : <BulkSample id="1">\n<mOrientation id="2">\n<double>0.0</double>\n<double>0.0</double>\n<double>-1.0</double>\n</mOrientation>\n</BulkSample>
#SPECTRUM    :
196570,
300,
38144,
7324,
18775,
21837,
52270,
342435,
101661,
21832,
24278,
26072,
30281,
28032,
26021,
30176,
28890,
28997,
145135,
1769077,
222032,
17666,
12898,
13088,
12894,
13095,
19893,
13061,
12522,
11928,
11662,
11255,
10805,
10358,
10234,
10018,
9656,
11374,
11625,
9808,
8351,
8100,
8164,
7746,
7262,
7196,
7317,
6417,
6391,
6227,
6043,
5835,
5573,
5485,
5237,
5201,
4740,
4841,
4563,
4293,
4234,
4144,
4167,
3929,
3730,
3481,
3416,
3412,
3301,
3126,
3103,
2974,
2831,
2720,
2634,
2656,
2528,
2397,
2261,
2173,
2060,
1978,
1976,
1869,
1882,
1710,
1666,
1581,
1562,
1432,
1465,
1362,
1307,
1237,
1174,
1216,
1148,
1063,
988,
979,
886,
824,
768,
713,
683,
689,
617,
569,
527,
514,
463,
402,
436,
392,
354,
311,
291,
294,
272,
241,
225,
189,
188,
158,
150,
133,
109,
132,
97,
102,
85,
53,
56,
58,
48,
31,
20,
17,
7,
11,
3,
3,
1,
0,
1,
0,
0,
1,
1,
2,
0,
0,
0,
2,
0,
0,
0,
0,
0,
0,
0,
0,
1,
1,
0,
0,
0,
0,
0,
0,
0,
0,
0,
0,
0,
0,
0,
0,
0,
0,
0,
0,
0,
0,
0,
0,
0,
0,
0,
0,
0,
0,
0,
0,
0,
0,
0,
0,
0,
0,
0,
0,
0,
0,
0,
0,
0,
0,
0,
0,
0,
0,
0,
0,
0,
0,
0,
0,
0,
0,
0,
0,
0,
0,
0,
0,
0,
0,
0,
0,
0,
0,
0,
0,
0,
0,
0,
0,
0,
0,
0,
0,
0,
0,
0,
0,
0,
0,
0,
0,
0,
0,
0,
0,
0,
0,
0,
0,
0,
0,
0,
0,
0,
0,
0,
0,
0,
0,
0,
0,
0,
0,
0,
0,
0,
0,
0,
0,
0,
0,
0,
0,
0,
0,
0,
0,
0,
0,
0,
0,
0,
0,
0,
0,
#ENDOFDATA   :