File: NeXLSpectrum/Zepellin/Standards/Cr std.msa
#FORMAT      : EMSA/MAS Spectral Data File
#VERSION     : 1.0
#TITLE       : Cr std
#DATE        : 11-OCT-2018
#TIME        : 01:35
#OWNER       : Unknown
#NPOINTS     : 4096
#NCOLUMNS    : 1
#XUNITS      : eV
#YUNITS      : counts
#DATATYPE    : Y
#XPERCHAN    : 9.99856
#OFFSET      : 1.63032
#BEAMKV      : 20
#SIGNALTYPE  : EDS
#ELEVANGLE   : 35
#AZIMANGLE   : 0
#LIVETIME    : 1162.73
#REALTIME    : 1542.76
#PROBECUR    : 0.97561
#TDEADLYR    : 0
#TACTLYR     : 0.045
#TALWIND     : 0.003
#CHOFFSET    : 0.0
#XLABEL      : Energy (eV)
#YLABEL      : Counts
#EDSDET      : SDUTW
##SPECIMEN   : Cr std
##D2STDCMP   : Cr,(Cr:100.0),5.0
##DET_HASH   : 97086dfe-e5c2-9c77-3984-1d0b14bbbf41
##CALIB_HASH : 1a36e884-c26d-3547-51b1-d0bb2efdf95a
##WORKING    : 17.0 mm
##SAMPLE     : <BulkSample id="1">\n<mOrientation id="2">\n<double>0.0</double>\n<double>0.0</double>\n<double>-1.0</double>\n</mOrientation>\n</BulkSample>
#SPECTRUM    :
190991,
132,
15937,
36273,
374709,
10456,
11733,
15923,
20696,
24945,
28489,
31246,
34391,
35750,
33063,
34043,
34306,
34757,
34056,
33513,
32231,
31720,
30547,
29995,
29216,
27897,
34947,
26785,
25287,
24469,
24436,
22945,
22201,
21857,
20824,
20811,
19961,
23438,
383113,
1253206,
24415,
19303,
125656,
110078,
10488,
10832,
13056,
10030,
9762,
9530,
9597,
9346,
9123,
9141,
8813,
8406,
8307,
8029,
7841,
7574,
7445,
7387,
7097,
6901,
6884,
6440,
6468,
6229,
5966,
5850,
5873,
5491,
5314,
5131,
5084,
5009,
4883,
6398,
5375,
4307,
4105,
4582,
3952,
3738,
3607,
3506,
3232,
3108,
3187,
2892,
2835,
2740,
2574,
2483,
2439,
2212,
2185,
2131,
2018,
1876,
1864,
1712,
1647,
1557,
1468,
1501,
1332,
1329,
1210,
1122,
1123,
984,
1030,
868,
910,
840,
764,
674,
704,
604,
555,
491,
493,
457,
426,
386,
359,
343,
291,
265,
232,
219,
204,
168,
156,
132,
112,
84,
91,
49,
47,
32,
19,
11,
2,
6,
7,
2,
6,
6,
6,
3,
4,
6,
2,
2,
2,
3,
4,
1,
1,
0,
0,
0,
0,
1,
0,
3,
0,
3,
1,
0,
0,
0,
1,
0,
1,
0,
1,
0,
0,
0,
0,
1,
0,
0,
0,
0,
1,
1,
0,
0,
0,
0,
0,
0,
0,
0,
0,
0,
0,
0,
0,
0,
0,
0,
0,
0,
0,
0,
0,
0,
0,
0,
0,
0,
0,
0,
0,
0,
0,
0,
0,
0,
0,
0,
0,
0,
0,
0,
0,
0,
0,
0,
0,
0,
0,
0,
0,
0,
0,
0,
0,
0,
0,
0,
0,
0,
0,
0,
0,
0,
0,
0,
0,
0,
0,
0,
0,
0,
0,
0,
0,
0,
0,
0,
0,
0,
0,
0,
0,
0,
0,
0,
0,
0,
0,
0,
0,
0,
0,
0,
0,
0,
0,
0,
0,
0,
0,
0,
0,
0,
0,
0,
#ENDOFDATA   :