File: NeXLSpectrum/Zepellin/Standards/Cu std.msa
#FORMAT      : EMSA/MAS Spectral Data File
#VERSION     : 1.0
#TITLE       : Cu std
#DATE        : 11-OCT-2018
#TIME        : 02:17
#OWNER       : Unknown
#NPOINTS     : 4096
#NCOLUMNS    : 1
#XUNITS      : eV
#YUNITS      : counts
#DATATYPE    : Y
#XPERCHAN    : 9.99856
#OFFSET      : 1.63032
#BEAMKV      : 20
#SIGNALTYPE  : EDS
#ELEVANGLE   : 35
#AZIMANGLE   : 0
#LIVETIME    : 1159.85
#REALTIME    : 1599.29
#PROBECUR    : 0.97242
#TDEADLYR    : 0
#TACTLYR     : 0.045
#TALWIND     : 0.003
#CHOFFSET    : 0.0
#XLABEL      : Energy (eV)
#YLABEL      : Counts
#EDSDET      : SDUTW
##SPECIMEN   : Cu std
##D2STDCMP   : Cu,(Cu:100.0),8.9
##DET_HASH   : 97086dfe-e5c2-9c77-3984-1d0b14bbbf41
##CALIB_HASH : 1a36e884-c26d-3547-51b1-d0bb2efdf95a
##WORKING    : 17.0 mm
##SAMPLE     : <BulkSample id="1">\n<mOrientation id="2">\n<double>0.0</double>\n<double>0.0</double>\n<double>-1.0</double>\n</mOrientation>\n</BulkSample>
#SPECTRUM    :
188926,
190,
31810,
16887,
34441,
53027,
302571,
719919,
15757,
18189,
21738,
24811,
26437,
33429,
28208,
29895,
31434,
32731,
32496,
33128,
32453,
32086,
31732,
30872,
30649,
29645,
28707,
27922,
27456,
26485,
25550,
24552,
24041,
23131,
22638,
22209,
21210,
20310,
19902,
20030,
18576,
17959,
17874,
16961,
16668,
18139,
17517,
14961,
14601,
14303,
13951,
13730,
13052,
12916,
12697,
12972,
19375,
427806,
328243,
13715,
10317,
10284,
11620,
49501,
73272,
9570,
6957,
6908,
6697,
6667,
6923,
6402,
6145,
5956,
5888,
5933,
5541,
5390,
5306,
5084,
4860,
4712,
4664,
4415,
4398,
4119,
4090,
3896,
3774,
3773,
3448,
3397,
3200,
3168,
3025,
2803,
2704,
2618,
2529,
2270,
2273,
2105,
2013,
1922,
1885,
1825,
1667,
1561,
1483,
1431,
1385,
1233,
1208,
1171,
1184,
1288,
1004,
889,
829,
794,
753,
731,
688,
546,
530,
499,
436,
421,
378,
339,
287,
296,
274,
233,
207,
182,
143,
126,
109,
92,
58,
32,
18,
14,
3,
6,
4,
3,
6,
5,
4,
3,
4,
7,
4,
3,
2,
3,
1,
2,
2,
1,
0,
0,
0,
1,
2,
1,
0,
3,
2,
0,
1,
3,
0,
1,
0,
2,
1,
1,
1,
1,
1,
0,
1,
0,
0,
0,
2,
0,
0,
0,
0,
0,
0,
0,
0,
0,
0,
0,
0,
0,
0,
0,
0,
0,
0,
0,
0,
0,
0,
0,
0,
0,
0,
0,
0,
0,
0,
0,
0,
0,
0,
0,
0,
0,
0,
0,
0,
0,
0,
0,
0,
0,
0,
0,
0,
0,
0,
0,
0,
0,
0,
0,
0,
0,
0,
0,
0,
0,
0,
0,
0,
0,
0,
0,
0,
0,
0,
0,
0,
0,
0,
0,
0,
0,
0,
0,
0,
0,
0,
0,
0,
0,
0,
0,
0,
0,
0,
0,
0,
0,
0,
0,
0,
0,
0,
0,
0,
0,
0,
0,
0,
0,
#ENDOFDATA   :