File: NeXLSpectrum/Zepellin/Standards/Nd std.msa
#FORMAT      : EMSA/MAS Spectral Data File
#VERSION     : 1.0
#TITLE       : Trimmed[NdF2 std,571 eV,848 eV]
#DATE        : 15-OCT-2018
#TIME        : 00:35
#OWNER       : Unknown
#NPOINTS     : 4096
#NCOLUMNS    : 1
#XUNITS      : eV
#YUNITS      : counts
#DATATYPE    : Y
#XPERCHAN    : 9.99856
#OFFSET      : 1.63032
#BEAMKV      : 20
#SIGNALTYPE  : EDS
#ELEVANGLE   : 35
#AZIMANGLE   : 0
#LIVETIME    : 1147.43
#REALTIME    : 1484.4
#PROBECUR    : 0.98828
#TDEADLYR    : 0
#TACTLYR     : 0.045
#TALWIND     : 0.003
#CHOFFSET    : 0.0
#XLABEL      : Energy (eV)
#YLABEL      : Counts
#EDSDET      : SDUTW
##SPECIMEN   : Trimmed[NdF2 std,571 eV,848 eV]
##D2STDCMP   : NdF2,(F:20.8499),(Nd:79.1501),5.0
##DET_HASH   : 97086dfe-e5c2-9c77-3984-1d0b14bbbf41
##CALIB_HASH : 1a36e884-c26d-3547-51b1-d0bb2efdf95a
##WORKING    : 17.0 mm
##SAMPLE     : <BulkSample id="1">\n<mOrientation id="2">\n<double>0.0</double>\n<double>0.0</double>\n<double>-1.0</double>\n</mOrientation>\n</BulkSample>
#SPECTRUM    :
145332,
183,
38322,
24003,
48766,
42414.25,
36062.5,
151882,
28949,
37499,
28656,
34386,
29190,
31336,
30774,
32306,
33113,
33777,
34413,
35114,
35011,
34837,
34265,
33619,
33575,
35657,
32210,
31181,
30770,
30375,
28749,
28660,
28059,
45726,
27840,
25832,
28460,
342067,
158887,
26128,
41152,
255289,
59346,
57476,
63346,
18374,
22558,
45450,
20181,
25213,
17145,
15795,
13073,
13040,
12842,
12455,
11987,
11969,
11732,
11427,
11234,
10928,
10660,
10400,
10199,
9975,
9935,
9378,
9246,
9067,
8820,
8444,
8433,
8183,
7953,
8177,
7728,
7187,
7457,
6931,
6744,
6574,
6237,
6024,
5838,
5842,
5446,
5315,
5089,
5023,
4963,
4592,
4486,
4202,
3975,
3794,
3760,
3575,
3409,
3222,
3111,
2896,
2808,
2744,
2553,
2604,
2462,
2342,
2223,
2032,
1942,
1880,
1759,
1669,
1572,
1482,
1438,
1263,
1266,
1146,
1091,
1026,
913,
856,
785,
752,
698,
588,
564,
509,
505,
423,
388,
335,
286,
263,
249,
189,
158,
109,
114,
64,
35,
16,
6,
7,
8,
4,
6,
5,
8,
3,
2,
2,
6,
6,
5,
1,
6,
3,
3,
2,
1,
3,
2,
0,
3,
1,
0,
2,
4,
2,
3,
1,
0,
0,
0,
0,
0,
0,
1,
0,
1,
0,
0,
0,
0,
0,
0,
0,
1,
0,
1,
0,
0,
1,
0,
0,
0,
0,
1,
0,
0,
0,
0,
1,
0,
0,
0,
0,
0,
0,
0,
0,
0,
0,
0,
0,
0,
0,
0,
0,
0,
0,
0,
0,
0,
0,
0,
0,
0,
0,
0,
0,
0,
0,
0,
0,
0,
0,
0,
0,
0,
0,
0,
0,
0,
0,
0,
0,
0,
0,
0,
0,
0,
0,
0,
0,
0,
0,
0,
0,
0,
0,
0,
0,
0,
0,
0,
0,
0,
0,
0,
0,
0,
0,
0,
0,
0,
0,
0,
0,
0,
0,
0,
0,
0,
0,
0,
0,
0,
0,
0,
0,
#ENDOFDATA   :