File: NeXLSpectrum/Zepellin/Standards/P std.msa
#FORMAT      : EMSA/MAS Spectral Data File
#VERSION     : 1.0
#TITLE       : GaP std
#DATE        : 11-OCT-2018
#TIME        : 00:24
#OWNER       : Unknown
#NPOINTS     : 4096
#NCOLUMNS    : 1
#XUNITS      : eV
#YUNITS      : counts
#DATATYPE    : Y
#XPERCHAN    : 9.99856
#OFFSET      : 1.63032
#BEAMKV      : 20
#SIGNALTYPE  : EDS
#ELEVANGLE   : 35
#AZIMANGLE   : 0
#LIVETIME    : 1161.35
#REALTIME    : 1600.92
#PROBECUR    : 0.97451
#TDEADLYR    : 0
#TACTLYR     : 0.045
#TALWIND     : 0.003
#CHOFFSET    : 0.0
#XLABEL      : Energy (eV)
#YLABEL      : Counts
#EDSDET      : SDUTW
##SPECIMEN   : GaP std
##D2STDCMP   : GaP,(P:30.7594),(Ga:69.2406),5.0
##DET_HASH   : 97086dfe-e5c2-9c77-3984-1d0b14bbbf41
##CALIB_HASH : 1a36e884-c26d-3547-51b1-d0bb2efdf95a
##WORKING    : 17.0 mm
##SAMPLE     : <BulkSample id="1">\n<mOrientation id="2">\n<double>0.0</double>\n<double>0.0</double>\n<double>-1.0</double>\n</mOrientation>\n</BulkSample>
#SPECTRUM    :
197780,
168,
31229,
11996,
20443,
34315,
51276,
205685,
2241895,
23473,
20981,
24285,
26711,
31345,
414078,
143429,
29027,
23010,
23943,
24208,
25089,
25107,
27898,
25496,
24369,
23820,
23594,
23022,
22530,
23010,
21511,
20651,
20156,
19388,
18889,
18313,
18168,
17392,
16893,
16716,
15612,
15262,
15106,
14377,
13964,
13718,
14276,
12859,
12296,
11934,
11898,
11187,
11022,
11071,
10522,
10082,
9593,
9448,
9114,
8876,
8735,
8687,
8352,
8312,
8647,
40676,
278533,
43577,
7094,
6682,
6319,
6553,
8100,
36641,
20908,
5499,
4864,
4529,
4411,
4292,
4512,
4485,
3925,
3777,
3677,
3495,
3547,
3342,
3262,
3067,
3128,
2785,
2778,
2670,
2430,
2364,
2250,
2188,
2115,
1953,
1904,
1896,
1739,
1592,
1572,
1498,
1440,
1364,
1280,
1150,
1131,
1042,
983,
943,
877,
865,
781,
708,
660,
656,
600,
548,
514,
474,
460,
381,
359,
358,
316,
275,
254,
229,
217,
172,
141,
149,
106,
86,
85,
72,
66,
29,
17,
11,
5,
4,
2,
7,
1,
4,
2,
0,
1,
4,
2,
2,
1,
2,
2,
2,
2,
0,
2,
0,
2,
1,
2,
0,
0,
0,
1,
0,
0,
0,
0,
3,
0,
0,
1,
0,
0,
1,
0,
0,
0,
0,
0,
1,
0,
1,
0,
0,
0,
0,
0,
0,
0,
0,
0,
0,
0,
0,
1,
0,
1,
0,
0,
0,
0,
0,
0,
0,
0,
0,
0,
0,
0,
0,
0,
0,
0,
0,
0,
0,
0,
0,
0,
0,
0,
0,
0,
0,
0,
0,
0,
0,
0,
0,
0,
0,
0,
0,
0,
0,
0,
0,
0,
0,
0,
0,
0,
0,
0,
0,
0,
0,
0,
0,
0,
0,
0,
0,
0,
0,
0,
0,
0,
0,
0,
0,
0,
0,
0,
0,
0,
0,
0,
0,
0,
0,
0,
0,
0,
0,
0,
0,
0,
0,
0,
0,
0,
0,
0,
0,
#ENDOFDATA   :