File: NeXLSpectrum/Zepellin/Standards/Pb std.msa
#FORMAT      : EMSA/MAS Spectral Data File
#VERSION     : 1.0
#TITLE       : Trimmed[K227 std,1610 eV,1993 eV]
#DATE        : 15-OCT-2018
#TIME        : 01:53
#OWNER       : Unknown
#NPOINTS     : 4096
#NCOLUMNS    : 1
#XUNITS      : eV
#YUNITS      : counts
#DATATYPE    : Y
#XPERCHAN    : 9.99856
#OFFSET      : 1.63032
#BEAMKV      : 20
#SIGNALTYPE  : EDS
#ELEVANGLE   : 35
#AZIMANGLE   : 0
#LIVETIME    : 1152.74
#REALTIME    : 1574.32
#PROBECUR    : 0.98835
#TDEADLYR    : 0
#TACTLYR     : 0.045
#TALWIND     : 0.003
#CHOFFSET    : 0.0
#XLABEL      : Energy (eV)
#YLABEL      : Counts
#EDSDET      : SDUTW
##SPECIMEN   : Trimmed[K227 std,1610 eV,1993 eV]
##D2STDCMP   : K227,(O:16.39),(Si:9.35),(Pb:74.27),5.0
##DET_HASH   : 97086dfe-e5c2-9c77-3984-1d0b14bbbf41
##CALIB_HASH : 1a36e884-c26d-3547-51b1-d0bb2efdf95a
##WORKING    : 17.0 mm
##SAMPLE     : <BulkSample id="1">\n<mOrientation id="2">\n<double>0.0</double>\n<double>0.0</double>\n<double>-1.0</double>\n</mOrientation>\n</BulkSample>
#SPECTRUM    :
147455,
223,
34721,
16500,
80578,
38708,
31934,
39372,
44465,
50621,
55715,
60460,
57106.9,
55334.8,
53562.7,
56688,
98375,
1034049,
177456,
77579,
31346,
34778,
44095,
32792,
30393,
31309,
29977,
30746,
29090,
29826,
29310,
28681,
28312,
28155,
28890,
28029,
26521,
25992,
25961,
25790,
24397,
23883,
23413,
23050,
22808,
22667,
24141,
21252,
20335,
19935,
19784,
19377,
18804,
18419,
17958,
17487,
17286,
16703,
16303,
15931,
15449,
15077,
14758,
14377,
13887,
15437,
16438,
13037,
12854,
12275,
11980,
11970,
11452,
11389,
16595,
64772,
41792,
10911,
9652,
9357,
9029,
8987,
8540,
8243,
7760,
7676,
7784,
8462,
8209,
10709,
30724,
14494,
7258,
7028,
5479,
5159,
4843,
4671,
4497,
4278,
4145,
3918,
3884,
3720,
3616,
4978,
4632,
3308,
3443,
3009,
2562,
2489,
2391,
2348,
2114,
1874,
1872,
1790,
1667,
1531,
1488,
1353,
1249,
1173,
1065,
1094,
978,
914,
811,
719,
701,
608,
568,
507,
404,
366,
342,
244,
217,
172,
132,
92,
55,
14,
11,
7,
15,
12,
14,
14,
12,
8,
6,
5,
5,
3,
2,
6,
1,
5,
4,
4,
2,
0,
2,
3,
1,
3,
5,
2,
3,
2,
0,
0,
4,
0,
3,
0,
2,
2,
1,
1,
3,
0,
1,
1,
1,
1,
0,
1,
1,
0,
1,
1,
0,
0,
0,
0,
0,
0,
1,
2,
0,
0,
0,
0,
0,
1,
0,
0,
0,
0,
0,
0,
0,
0,
0,
0,
1,
0,
0,
0,
0,
0,
0,
0,
0,
0,
0,
0,
0,
0,
0,
0,
0,
0,
0,
0,
0,
0,
0,
0,
0,
0,
0,
0,
0,
0,
0,
0,
0,
0,
0,
0,
0,
0,
0,
0,
0,
0,
0,
0,
0,
0,
0,
0,
0,
0,
0,
0,
0,
0,
0,
0,
0,
0,
0,
0,
0,
0,
0,
0,
0,
0,
0,
0,
0,
0,
0,
0,
0,
0,
0,
0,
#ENDOFDATA   :