File: NeXLSpectrum/Zepellin/Standards/Si std.msa
#FORMAT      : EMSA/MAS Spectral Data File
#VERSION     : 1.0
#TITLE       : Si std
#DATE        : 11-OCT-2018
#TIME        : 11:48
#OWNER       : Unknown
#NPOINTS     : 4096
#NCOLUMNS    : 1
#XUNITS      : eV
#YUNITS      : counts
#DATATYPE    : Y
#XPERCHAN    : 9.99856
#OFFSET      : 1.63032
#BEAMKV      : 20
#SIGNALTYPE  : EDS
#ELEVANGLE   : 35
#AZIMANGLE   : 0
#LIVETIME    : 1149.58
#REALTIME    : 1771.99
#PROBECUR    : 0.97465
#TDEADLYR    : 0
#TACTLYR     : 0.045
#TALWIND     : 0.003
#CHOFFSET    : 0.0
#XLABEL      : Energy (eV)
#YLABEL      : Counts
#EDSDET      : SDUTW
##SPECIMEN   : Si std
##D2STDCMP   : Si,(Si:100.0),2.95
##DET_HASH   : 97086dfe-e5c2-9c77-3984-1d0b14bbbf41
##CALIB_HASH : 1a36e884-c26d-3547-51b1-d0bb2efdf95a
##WORKING    : 17.0 mm
##SAMPLE     : <BulkSample id="1">\n<mOrientation id="2">\n<double>0.0</double>\n<double>0.0</double>\n<double>-1.0</double>\n</mOrientation>\n</BulkSample>
#SPECTRUM    :
200689,
122,
11529,
7368,
14017,
22036,
31536,
39100,
44239,
47237,
53941,
73131,
1728926,
853137,
11698,
11000,
12046,
12961,
13691,
13995,
14316,
14317,
14344,
14387,
15561,
52124,
14560,
12498,
12322,
12029,
11632,
11250,
11103,
10553,
10413,
10080,
9633,
9352,
9140,
8830,
8231,
7996,
7879,
7668,
7388,
7109,
7341,
6614,
6405,
6174,
6137,
5632,
5663,
5450,
5452,
4919,
4775,
4673,
4621,
4429,
4323,
4224,
4024,
3911,
3731,
3606,
3548,
3457,
3286,
3214,
3159,
3012,
2863,
2764,
2739,
2641,
2594,
2411,
2250,
2260,
2147,
2106,
2071,
1946,
1809,
1714,
1701,
1574,
1521,
1496,
1518,
1342,
1288,
1205,
1160,
1145,
1068,
1015,
944,
904,
895,
823,
811,
759,
698,
648,
648,
626,
553,
544,
474,
437,
441,
430,
421,
392,
333,
326,
287,
257,
242,
242,
226,
200,
207,
166,
167,
150,
129,
108,
121,
110,
79,
74,
68,
44,
44,
28,
28,
29,
19,
16,
9,
4,
1,
2,
0,
0,
0,
1,
0,
0,
1,
0,
1,
0,
0,
0,
0,
0,
0,
0,
0,
0,
0,
0,
0,
0,
0,
0,
1,
0,
0,
0,
0,
0,
0,
0,
0,
0,
0,
0,
0,
0,
1,
0,
0,
0,
0,
0,
0,
0,
0,
0,
0,
0,
0,
0,
0,
0,
0,
0,
0,
0,
0,
0,
0,
0,
0,
0,
0,
0,
0,
0,
0,
0,
0,
0,
0,
0,
0,
0,
0,
0,
0,
0,
0,
0,
0,
0,
0,
0,
0,
0,
0,
0,
0,
0,
0,
0,
0,
0,
0,
0,
0,
0,
0,
0,
0,
0,
0,
0,
0,
0,
0,
0,
0,
0,
0,
0,
0,
0,
0,
0,
0,
0,
0,
0,
0,
0,
0,
0,
0,
0,
0,
0,
0,
0,
0,
0,
0,
0,
0,
0,
0,
0,
0,
0,
0,
0,
0,
0,
0,
0,
#ENDOFDATA   :