File: NeXLSpectrum/Zepellin/Standards/Sn std.msa
#FORMAT      : EMSA/MAS Spectral Data File
#VERSION     : 1.0
#TITLE       : Sn std
#DATE        : 15-OCT-2018
#TIME        : 11:47
#OWNER       : Unknown
#NPOINTS     : 4096
#NCOLUMNS    : 1
#XUNITS      : eV
#YUNITS      : counts
#DATATYPE    : Y
#XPERCHAN    : 9.99856
#OFFSET      : 1.63032
#BEAMKV      : 20
#SIGNALTYPE  : EDS
#ELEVANGLE   : 35
#AZIMANGLE   : 0
#LIVETIME    : 1166.83
#REALTIME    : 1628.69
#PROBECUR    : 0.98878
#TDEADLYR    : 0
#TACTLYR     : 0.045
#TALWIND     : 0.003
#CHOFFSET    : 0.0
#XLABEL      : Energy (eV)
#YLABEL      : Counts
#EDSDET      : SDUTW
##SPECIMEN   : Sn std
##D2STDCMP   : Sn,(Sn:100.0),5.0
##DET_HASH   : 97086dfe-e5c2-9c77-3984-1d0b14bbbf41
##CALIB_HASH : 1a36e884-c26d-3547-51b1-d0bb2efdf95a
##WORKING    : 17.0 mm
##SAMPLE     : <BulkSample id="1">\n<mOrientation id="2">\n<double>0.0</double>\n<double>0.0</double>\n<double>-1.0</double>\n</mOrientation>\n</BulkSample>
#SPECTRUM    :
150904,
456,
30401,
87621,
20369,
27023,
20407,
24772,
29866,
35584,
40358,
46695,
62101,
50674,
54812,
51783,
52273,
52731,
52598,
52529,
51431,
54900,
96787,
60429,
277817,
836034,
590087,
233826,
224257,
51081,
52618,
45844,
28358,
23425,
23727,
23681,
23649,
23495,
23532,
23825,
22700,
22326,
22422,
21832,
21548,
21393,
22117,
20325,
20011,
20944,
19991,
20869,
18959,
18709,
17840,
17154,
16733,
16366,
16019,
15459,
15079,
14684,
14351,
14102,
13860,
13310,
13030,
12818,
12295,
11952,
11803,
11677,
11079,
10684,
10597,
10669,
10156,
9722,
9412,
9130,
8811,
8597,
8300,
8109,
7702,
7608,
7372,
7090,
6942,
6641,
6623,
6235,
5789,
5716,
5339,
5229,
4874,
4902,
4504,
4310,
4337,
4030,
3814,
3737,
3416,
3454,
3269,
3051,
2865,
2724,
2618,
2553,
2335,
2232,
2142,
1908,
1951,
1747,
1647,
1524,
1396,
1413,
1247,
1231,
1042,
989,
861,
836,
776,
695,
642,
597,
548,
471,
425,
353,
321,
286,
221,
216,
141,
85,
55,
35,
13,
10,
10,
1,
6,
10,
4,
8,
4,
3,
5,
3,
5,
2,
2,
3,
1,
5,
2,
1,
5,
4,
2,
0,
1,
3,
1,
1,
2,
2,
1,
0,
1,
1,
0,
0,
1,
1,
0,
0,
1,
0,
0,
0,
1,
0,
0,
0,
0,
0,
0,
0,
0,
1,
1,
1,
0,
0,
0,
1,
1,
0,
0,
0,
0,
0,
0,
0,
0,
0,
0,
0,
0,
0,
1,
0,
0,
1,
0,
0,
0,
0,
0,
0,
0,
0,
0,
0,
0,
0,
0,
0,
0,
0,
0,
0,
0,
0,
0,
0,
0,
0,
0,
0,
0,
0,
0,
0,
0,
1,
0,
0,
0,
0,
0,
0,
0,
0,
0,
0,
0,
0,
0,
0,
0,
0,
0,
0,
0,
0,
0,
0,
0,
0,
0,
0,
0,
0,
0,
0,
0,
0,
0,
0,
0,
0,
0,
0,
0,
0,
#ENDOFDATA   :