File: NeXLSpectrum/Zepellin/Standards/Sr std.msa
#FORMAT      : EMSA/MAS Spectral Data File
#VERSION     : 1.0
#TITLE       : SrF2 std
#DATE        : 15-OCT-2018
#TIME        : 10:06
#OWNER       : Unknown
#NPOINTS     : 4096
#NCOLUMNS    : 1
#XUNITS      : eV
#YUNITS      : counts
#DATATYPE    : Y
#XPERCHAN    : 9.99856
#OFFSET      : 1.63032
#BEAMKV      : 20
#SIGNALTYPE  : EDS
#ELEVANGLE   : 35
#AZIMANGLE   : 0
#LIVETIME    : 1171.72
#REALTIME    : 1522.99
#PROBECUR    : 0.98577
#TDEADLYR    : 0
#TACTLYR     : 0.045
#TALWIND     : 0.003
#CHOFFSET    : 0.0
#XLABEL      : Energy (eV)
#YLABEL      : Counts
#EDSDET      : SDUTW
##SPECIMEN   : SrF2 std
##D2STDCMP   : SrF2,(F:30.2477),(Sr:69.7523),5.0
##DET_HASH   : 97086dfe-e5c2-9c77-3984-1d0b14bbbf41
##CALIB_HASH : 1a36e884-c26d-3547-51b1-d0bb2efdf95a
##WORKING    : 17.0 mm
##SAMPLE     : <BulkSample id="1">\n<mOrientation id="2">\n<double>0.0</double>\n<double>0.0</double>\n<double>-1.0</double>\n</mOrientation>\n</BulkSample>
#SPECTRUM    :
151257,
342,
20867,
9752,
19965,
340152,
23734,
29797,
37080,
43156,
47833,
83344,
81320,
2033947,
146183,
22503,
25156,
21751,
24575,
23203,
23517,
24052,
24030,
24226,
24406,
23883,
27633,
24182,
22492,
22081,
21211,
20885,
20874,
19454,
19264,
18948,
18335,
17765,
17318,
17262,
16349,
15757,
15594,
15086,
14388,
14298,
15019,
13124,
12790,
12581,
12320,
11787,
11316,
11003,
10844,
10259,
10068,
9857,
9578,
9247,
8999,
8893,
8537,
8202,
8182,
7700,
7536,
7424,
7138,
6766,
6650,
6596,
6263,
6112,
6050,
5964,
5622,
5359,
5191,
4965,
4898,
4724,
4377,
4402,
4177,
4150,
3875,
3695,
3628,
3445,
3513,
3213,
3070,
2851,
2753,
2630,
2574,
2473,
2422,
2474,
7278,
18985,
6738,
1947,
1744,
1646,
1666,
1553,
1469,
1328,
1289,
1249,
1745,
3278,
1904,
1227,
868,
764,
725,
682,
655,
574,
544,
524,
445,
422,
394,
367,
299,
281,
258,
226,
195,
181,
149,
145,
129,
112,
79,
59,
35,
17,
8,
5,
3,
4,
4,
1,
1,
2,
4,
3,
0,
1,
1,
2,
1,
1,
2,
0,
1,
2,
0,
1,
1,
1,
2,
0,
1,
2,
2,
0,
0,
0,
1,
0,
0,
0,
0,
0,
0,
0,
0,
0,
0,
0,
0,
0,
0,
0,
0,
0,
0,
0,
0,
1,
0,
0,
2,
1,
0,
0,
0,
0,
0,
0,
0,
0,
0,
0,
0,
0,
0,
0,
0,
0,
0,
0,
0,
0,
0,
0,
0,
0,
0,
0,
0,
0,
0,
1,
0,
0,
0,
0,
0,
0,
0,
0,
0,
0,
0,
0,
0,
0,
0,
0,
0,
0,
0,
0,
0,
0,
0,
0,
0,
0,
0,
0,
0,
0,
0,
0,
0,
0,
0,
0,
0,
0,
0,
0,
0,
0,
0,
0,
0,
0,
0,
0,
0,
0,
0,
0,
0,
0,
0,
0,
0,
0,
0,
0,
0,
0,
0,
0,
#ENDOFDATA   :