File: NeXLSpectrum/Zepellin/Standards/Zn std.msa
#FORMAT      : EMSA/MAS Spectral Data File
#VERSION     : 1.0
#TITLE       : Zn std
#DATE        : 11-OCT-2018
#TIME        : 02:24
#OWNER       : Unknown
#NPOINTS     : 4096
#NCOLUMNS    : 1
#XUNITS      : eV
#YUNITS      : counts
#DATATYPE    : Y
#XPERCHAN    : 9.99856
#OFFSET      : 1.63032
#BEAMKV      : 20
#SIGNALTYPE  : EDS
#ELEVANGLE   : 35
#AZIMANGLE   : 0
#LIVETIME    : 1157.03
#REALTIME    : 1650.23
#PROBECUR    : 0.97292
#TDEADLYR    : 0
#TACTLYR     : 0.045
#TALWIND     : 0.003
#CHOFFSET    : 0.0
#XLABEL      : Energy (eV)
#YLABEL      : Counts
#EDSDET      : SDUTW
##SPECIMEN   : Zn std
##D2STDCMP   : Zn,(Zn:100.0),5.0
##DET_HASH   : 97086dfe-e5c2-9c77-3984-1d0b14bbbf41
##CALIB_HASH : 1a36e884-c26d-3547-51b1-d0bb2efdf95a
##WORKING    : 17.0 mm
##SAMPLE     : <BulkSample id="1">\n<mOrientation id="2">\n<double>0.0</double>\n<double>0.0</double>\n<double>-1.0</double>\n</mOrientation>\n</BulkSample>
#SPECTRUM    :
189979,
182,
27586,
15252,
30142,
46903,
159951,
2206240,
57079,
17200,
19280,
22656,
24763,
28201,
31045,
31681,
30292,
31111,
31599,
32168,
31897,
31968,
31121,
30634,
30438,
29484,
29053,
27959,
27365,
26591,
25866,
25007,
24522,
23487,
22734,
22419,
21495,
20937,
20432,
20124,
19113,
18302,
17834,
17184,
16692,
16721,
17538,
15087,
14668,
15290,
14221,
13628,
13147,
13298,
12532,
12222,
11872,
11588,
11655,
11812,
13895,
215495,
417031,
20261,
9607,
8905,
9418,
11409,
62568,
41664,
7356,
6358,
6229,
6090,
5940,
6218,
6139,
5492,
5315,
5124,
5091,
4927,
4624,
4560,
4400,
4128,
4171,
3923,
3871,
3704,
3695,
3409,
3218,
3173,
3031,
2861,
2813,
2684,
2553,
2444,
2330,
2180,
2119,
2089,
1916,
1832,
1682,
1679,
1630,
1478,
1411,
1340,
1314,
1144,
1171,
1123,
1007,
1021,
836,
796,
776,
720,
652,
735,
677,
542,
518,
431,
368,
395,
372,
324,
274,
239,
203,
183,
150,
125,
105,
94,
87,
52,
29,
15,
11,
12,
3,
6,
2,
8,
6,
9,
3,
3,
5,
1,
5,
6,
5,
3,
1,
0,
1,
1,
4,
1,
1,
2,
2,
0,
0,
0,
0,
2,
1,
1,
0,
1,
1,
2,
1,
0,
2,
0,
0,
0,
0,
1,
0,
0,
0,
0,
0,
1,
0,
0,
1,
0,
0,
0,
0,
0,
0,
0,
0,
1,
0,
0,
0,
0,
0,
0,
0,
0,
0,
0,
0,
0,
0,
0,
0,
0,
0,
0,
0,
0,
1,
0,
0,
0,
0,
0,
0,
0,
0,
0,
0,
0,
0,
0,
0,
0,
0,
0,
0,
0,
0,
0,
0,
0,
0,
0,
0,
0,
0,
0,
0,
0,
0,
0,
0,
0,
0,
0,
0,
0,
0,
0,
0,
0,
0,
0,
0,
0,
0,
0,
0,
0,
0,
0,
0,
0,
0,
0,
0,
0,
0,
0,
0,
0,
0,
0,
0,
0,
#ENDOFDATA   :