File: NeXLSpectrum/Zepellin/Standards/Zr std.msa
#FORMAT      : EMSA/MAS Spectral Data File
#VERSION     : 1.0
#TITLE       : Zr std
#DATE        : 15-OCT-2018
#TIME        : 10:20
#OWNER       : Unknown
#NPOINTS     : 4096
#NCOLUMNS    : 1
#XUNITS      : eV
#YUNITS      : counts
#DATATYPE    : Y
#XPERCHAN    : 9.99856
#OFFSET      : 1.63032
#BEAMKV      : 20
#SIGNALTYPE  : EDS
#ELEVANGLE   : 35
#AZIMANGLE   : 0
#LIVETIME    : 1156.32
#REALTIME    : 1641.54
#PROBECUR    : 0.98709
#TDEADLYR    : 0
#TACTLYR     : 0.045
#TALWIND     : 0.003
#CHOFFSET    : 0.0
#XLABEL      : Energy (eV)
#YLABEL      : Counts
#EDSDET      : SDUTW
##SPECIMEN   : Zr std
##D2STDCMP   : Zr,(Zr:100.0),8.0
##DET_HASH   : 97086dfe-e5c2-9c77-3984-1d0b14bbbf41
##CALIB_HASH : 1a36e884-c26d-3547-51b1-d0bb2efdf95a
##WORKING    : 17.0 mm
##SAMPLE     : <BulkSample id="1">\n<mOrientation id="2">\n<double>0.0</double>\n<double>0.0</double>\n<double>-1.0</double>\n</mOrientation>\n</BulkSample>
#SPECTRUM    :
144760,
1626,
58441,
21532,
22938,
26133,
33457,
43168,
51276,
57368,
62678,
66490,
67729,
167315,
338635,
1737533,
181382,
27616,
34889,
23929,
25170,
25768,
26715,
26908,
27545,
27861,
27676,
27867,
28064,
31814,
32180,
27239,
26078,
25415,
25069,
24147,
23595,
23422,
22972,
23190,
21866,
21028,
20905,
20149,
19526,
19630,
20372,
18063,
17719,
17168,
17100,
16293,
15782,
15673,
15171,
14574,
14313,
14040,
13692,
13101,
13035,
12344,
12111,
11719,
11414,
11162,
10984,
10653,
10242,
10032,
9740,
9265,
9306,
8882,
8796,
8743,
8211,
7856,
7476,
7439,
7154,
6943,
6580,
6450,
6154,
6062,
5731,
5612,
5445,
5111,
5263,
4813,
4677,
4478,
4094,
4000,
3951,
3709,
3357,
3382,
3387,
3161,
2982,
2869,
2687,
2657,
2519,
2319,
2213,
2217,
2048,
2670,
6634,
6105,
2055,
1475,
1425,
1351,
1265,
1201,
1077,
1027,
963,
851,
766,
950,
1466,
998,
650,
548,
449,
387,
381,
342,
346,
242,
186,
200,
161,
150,
106,
77,
36,
18,
10,
9,
5,
3,
1,
4,
4,
1,
3,
7,
2,
7,
1,
3,
0,
2,
3,
1,
2,
0,
1,
0,
1,
0,
3,
4,
1,
2,
0,
0,
1,
0,
1,
1,
0,
0,
2,
1,
0,
1,
0,
1,
1,
0,
0,
2,
0,
0,
0,
0,
0,
0,
0,
1,
1,
0,
0,
0,
0,
0,
0,
0,
0,
0,
0,
1,
0,
0,
0,
0,
0,
0,
0,
0,
0,
0,
0,
0,
0,
0,
0,
0,
0,
1,
0,
0,
0,
0,
0,
0,
0,
0,
0,
0,
0,
0,
0,
0,
0,
0,
0,
0,
0,
0,
0,
0,
0,
0,
0,
0,
0,
0,
0,
0,
0,
0,
0,
0,
0,
0,
0,
0,
0,
0,
0,
0,
0,
0,
0,
0,
0,
0,
0,
0,
0,
0,
0,
0,
0,
0,
0,
0,
0,
0,
0,
0,
0,
0,
0,
0,
#ENDOFDATA   :