File: NeXLSpectrum/HyperSpectra/PTX/Cu std.msa
#FORMAT      : EMSA/MAS Spectral Data File
#VERSION     : 1.0
#TITLE       : Cu std
#DATE        : 15-MAY-2018
#TIME        : 11:57
#OWNER       : Unknown
#NPOINTS     : 4096
#NCOLUMNS    : 1
#XUNITS      : eV
#YUNITS      : counts
#DATATYPE    : Y
#XPERCHAN    : 9.99856
#OFFSET      : 1.63032
#BEAMKV      : 25
#SIGNALTYPE  : EDS
#ELEVANGLE   : 35
#AZIMANGLE   : 0
#LIVETIME    : 1171.08
#REALTIME    : 1665.23
#PROBECUR    : 0.94575
#TDEADLYR    : 0
#TACTLYR     : 0.045
#TALWIND     : 0.003
#CHOFFSET    : 0.0
#XLABEL      : Energy (eV)
#YLABEL      : Counts
#EDSDET      : SDUTW
##SPECIMEN   : Cu std
##D2STDCMP   : Cu,(Cu:100.0),8.9
##DET_HASH   : 97086dfe-e5c2-9c77-3984-1d0b14bbbf41
##CALIB_HASH : 1a36e884-c26d-3547-51b1-d0bb2efdf95a
##WORKING    : 16.99 mm
##SAMPLE     : <BulkSample id="1">\n<mOrientation id="2">\n<double>0.0</double>\n<double>0.0</double>\n<double>-1.0</double>\n</mOrientation>\n</BulkSample>
#SPECTRUM    :
26,
90,
29797,
14373,
28734,
47067,
285123,
685497,
12956,
15215,
18843,
21730,
23751,
30710,
26189,
28473,
31273,
32569,
33293,
34812,
34579,
35098,
35090,
34814,
35227,
34325,
34217,
33542,
32840,
32140,
31402,
30565,
29903,
29207,
28878,
28036,
27036,
26282,
26058,
25815,
24283,
23600,
23186,
22694,
22488,
24673,
24329,
20370,
19722,
19630,
19387,
18703,
17841,
18153,
18078,
18584,
30303,
763438,
579073,
20687,
14901,
14881,
17265,
85971,
127547,
13758,
9405,
9094,
9097,
9306,
9634,
9094,
8541,
8340,
8253,
8456,
8214,
7656,
7526,
7393,
7078,
7101,
6969,
6642,
6494,
6228,
6135,
6088,
5893,
5799,
6017,
5385,
5212,
4980,
4695,
4657,
4566,
4483,
4212,
4021,
3941,
3841,
3693,
3503,
3546,
3346,
3294,
3137,
3014,
2938,
2751,
2611,
2598,
2637,
2658,
3070,
2373,
2105,
1990,
1909,
1937,
2032,
1765,
1600,
1461,
1442,
1401,
1419,
1296,
1263,
1077,
1135,
1078,
1021,
939,
906,
851,
876,
737,
720,
680,
668,
644,
588,
506,
515,
496,
476,
417,
433,
385,
321,
352,
270,
304,
250,
224,
242,
198,
203,
159,
156,
137,
126,
120,
114,
102,
88,
84,
67,
51,
62,
43,
40,
45,
20,
20,
13,
8,
6,
0,
6,
2,
2,
2,
2,
4,
3,
3,
1,
1,
1,
0,
1,
2,
0,
0,
2,
0,
0,
2,
0,
0,
1,
1,
1,
0,
2,
0,
0,
0,
0,
0,
0,
1,
0,
0,
0,
0,
2,
0,
0,
1,
0,
0,
0,
0,
0,
0,
0,
0,
0,
0,
0,
0,
0,
0,
0,
0,
0,
0,
0,
0,
0,
0,
0,
0,
0,
0,
0,
0,
0,
0,
0,
0,
0,
0,
0,
0,
0,
0,
0,
0,
0,
0,
0,
0,
0,
0,
0,
0,
0,
0,
0,
0,
0,
0,
0,
0,
0,
0,
0,
0,
0,
0,
0,
0,
0,
0,
0,
0,
0,
0,
0,
#ENDOFDATA   :