File: NeXLSpectrum/HyperSpectra/PTX/Fe std.msa
#FORMAT      : EMSA/MAS Spectral Data File
#VERSION     : 1.0
#TITLE       : Fe std
#DATE        : 15-MAY-2018
#TIME        : 10:58
#OWNER       : Unknown
#NPOINTS     : 4096
#NCOLUMNS    : 1
#XUNITS      : eV
#YUNITS      : counts
#DATATYPE    : Y
#XPERCHAN    : 9.99856
#OFFSET      : 1.63032
#BEAMKV      : 25
#SIGNALTYPE  : EDS
#ELEVANGLE   : 35
#AZIMANGLE   : 0
#LIVETIME    : 938.485
#REALTIME    : 1283.93
#PROBECUR    : 0.94656
#TDEADLYR    : 0
#TACTLYR     : 0.045
#TALWIND     : 0.003
#CHOFFSET    : 0.0
#XLABEL      : Energy (eV)
#YLABEL      : Counts
#EDSDET      : SDUTW
##SPECIMEN   : Fe std
##D2STDCMP   : Fe,(Fe:100.0),7.87
##DET_HASH   : 97086dfe-e5c2-9c77-3984-1d0b14bbbf41
##CALIB_HASH : 1a36e884-c26d-3547-51b1-d0bb2efdf95a
##WORKING    : 16.99 mm
##SAMPLE     : <BulkSample id="1">\n<mOrientation id="2">\n<double>0.0</double>\n<double>0.0</double>\n<double>-1.0</double>\n</mOrientation>\n</BulkSample>
#SPECTRUM    :
15,
55,
24990,
11589,
62803,
505803,
8778,
10433,
12275,
15443,
18382,
20812,
29601,
24855,
23862,
25828,
27329,
28462,
28708,
29444,
29635,
28703,
28570,
28637,
28274,
27266,
26793,
26337,
25867,
25037,
24303,
23880,
23502,
27225,
22865,
21451,
20726,
20403,
20848,
21142,
18708,
18118,
18402,
18406,
21459,
357898,
1279987,
32433,
15818,
19291,
147138,
92002,
9617,
9006,
8967,
9194,
8940,
8625,
8599,
8405,
8334,
8010,
8034,
7883,
7778,
7591,
7330,
7187,
7174,
7016,
6878,
6557,
6448,
6276,
6182,
6385,
6051,
5589,
5541,
5632,
5254,
5142,
5055,
4979,
4906,
4487,
4475,
4293,
4229,
4219,
4361,
5480,
5061,
3652,
3492,
3625,
4074,
3285,
3097,
2913,
2789,
2789,
2675,
2574,
2352,
2332,
2253,
2265,
2090,
1994,
1989,
1827,
1891,
1779,
1677,
1561,
1552,
1437,
1414,
1348,
1161,
1245,
1160,
1129,
1037,
1006,
960,
980,
833,
848,
825,
733,
767,
726,
666,
662,
587,
538,
526,
486,
501,
436,
441,
436,
355,
352,
338,
346,
300,
285,
278,
230,
215,
197,
165,
190,
172,
172,
146,
137,
115,
100,
99,
80,
79,
73,
49,
69,
57,
38,
38,
41,
26,
25,
16,
14,
10,
4,
6,
3,
2,
0,
2,
2,
2,
0,
1,
1,
1,
1,
1,
0,
0,
0,
0,
2,
1,
1,
0,
1,
1,
0,
0,
1,
0,
0,
0,
0,
0,
0,
0,
0,
0,
0,
0,
0,
0,
0,
0,
0,
0,
0,
0,
0,
0,
0,
0,
0,
0,
0,
0,
0,
0,
0,
0,
0,
0,
0,
0,
0,
0,
0,
0,
0,
0,
1,
0,
0,
0,
0,
0,
0,
0,
0,
0,
0,
0,
0,
0,
0,
0,
0,
0,
0,
0,
0,
0,
0,
0,
0,
0,
0,
0,
0,
0,
0,
0,
0,
0,
0,
0,
0,
0,
0,
0,
0,
0,
0,
0,
0,
0,
0,
0,
0,
#ENDOFDATA   :