File: NeXLSpectrum/HyperSpectra/PTX/MaxPixel[Test].msa
#FORMAT      : EMSA/MAS Spectral Data File
#VERSION     : 1.0
#TITLE       : MaxPixel[Test]
#DATE        : 31-DEC-1969
#TIME        : 07:00
#OWNER       : Unknown
#NPOINTS     : 2048
#NCOLUMNS    : 1
#XUNITS      : eV
#YUNITS      : counts
#DATATYPE    : Y
#XPERCHAN    : 9.99856
#OFFSET      : 1.63032
#SIGNALTYPE  : EDS
#ELEVANGLE   : 35
#AZIMANGLE   : 0
#TDEADLYR    : 0
#TACTLYR     : 0.045
#TALWIND     : 0.003
#CHOFFSET    : 0.0
#XLABEL      : Energy (eV)
#YLABEL      : Counts
#EDSDET      : SDUTW
##SPECIMEN   : MaxPixel[Test]
##DET_HASH   : 97086dfe-e5c2-9c77-3984-1d0b14bbbf41
##CALIB_HASH : 1a36e884-c26d-3547-51b1-d0bb2efdf95a
#SPECTRUM    :
1,
0,
1,
7,
27,
3,
3,
15,
10,
6,
12,
4,
3,
5,
3,
4,
3,
3,
4,
4,
4,
4,
4,
4,
4,
8,
4,
4,
4,
4,
4,
4,
5,
6,
6,
3,
3,
3,
4,
3,
4,
3,
3,
4,
3,
3,
3,
3,
3,
3,
4,
3,
4,
3,
3,
3,
4,
4,
3,
3,
2,
3,
3,
3,
3,
3,
3,
3,
3,
3,
3,
3,
3,
3,
3,
3,
3,
2,
3,
3,
3,
3,
2,
2,
3,
3,
2,
2,
2,
3,
8,
17,
19,
7,
3,
2,
2,
3,
2,
4,
5,
6,
3,
3,
2,
3,
2,
3,
2,
2,
2,
2,
2,
2,
2,
3,
2,
2,
2,
2,
2,
2,
2,
2,
2,
2,
2,
2,
2,
2,
2,
2,
2,
2,
2,
2,
2,
2,
2,
3,
2,
2,
2,
2,
2,
3,
2,
2,
2,
2,
2,
2,
2,
2,
2,
2,
2,
2,
2,
2,
2,
2,
2,
2,
2,
2,
2,
2,
2,
2,
2,
2,
1,
2,
2,
2,
3,
2,
2,
2,
2,
2,
2,
2,
2,
1,
2,
2,
1,
2,
1,
2,
2,
1,
2,
2,
2,
1,
1,
1,
1,
2,
1,
2,
2,
1,
2,
2,
1,
2,
2,
2,
2,
1,
1,
2,
1,
1,
1,
1,
2,
1,
2,
1,
2,
1,
1,
1,
1,
1,
2,
1,
1,
1,
1,
1,
1,
1,
1,
1,
1,
2,
1,
1,
1,
1,
1,
1,
1,
1,
1,
2,
1,
1,
1,
2,
1,
1,
1,
1,
1,
1,
1,
1,
1,
1,
1,
1,
2,
1,
1,
1,
1,
1,
1,
1,
1,
1,
1,
1,
1,
1,
1,
1,
1,
1,
1,
1,
1,
1,
1,
1,
2,
1,
#ENDOFDATA   :