File: NeXLSpectrum/HyperSpectra/PTX/MgO std.msa
#FORMAT      : EMSA/MAS Spectral Data File
#VERSION     : 1.0
#TITLE       : MgO std
#DATE        : 15-MAY-2018
#TIME        : 09:51
#OWNER       : Unknown
#NPOINTS     : 4096
#NCOLUMNS    : 1
#XUNITS      : eV
#YUNITS      : counts
#DATATYPE    : Y
#XPERCHAN    : 9.99856
#OFFSET      : 1.63032
#BEAMKV      : 25
#SIGNALTYPE  : EDS
#ELEVANGLE   : 35
#AZIMANGLE   : 0
#LIVETIME    : 1172.82
#REALTIME    : 1456.54
#PROBECUR    : 0.94932
#TDEADLYR    : 0
#TACTLYR     : 0.045
#TALWIND     : 0.003
#CHOFFSET    : 0.0
#XLABEL      : Energy (eV)
#YLABEL      : Counts
#EDSDET      : SDUTW
##SPECIMEN   : MgO std
##D2STDCMP   : MgO,(O:39.6964),(Mg:60.3036),5.0
##DET_HASH   : 97086dfe-e5c2-9c77-3984-1d0b14bbbf41
##CALIB_HASH : 1a36e884-c26d-3547-51b1-d0bb2efdf95a
##WORKING    : 16.99 mm
##SAMPLE     : <BulkSample id="1">\n<mOrientation id="2">\n<double>0.0</double>\n<double>0.0</double>\n<double>-1.0</double>\n</mOrientation>\n</BulkSample>
#SPECTRUM    :
23,
49,
13464,
15231,
221417,
9352,
12903,
21067,
46463,
3565363,
11303,
9556,
10826,
14383,
11995,
13040,
13763,
14447,
23778,
14763,
14779,
14667,
14497,
14248,
13754,
13591,
13675,
13019,
12323,
12131,
11544,
11306,
10899,
10233,
10223,
9939,
9624,
9113,
8884,
8918,
8151,
7916,
7633,
7372,
7089,
7121,
7177,
6395,
6245,
5917,
5933,
5764,
5414,
5288,
5150,
4908,
4837,
4739,
4580,
4512,
4350,
4272,
3880,
3834,
3879,
3748,
3619,
3443,
3354,
3231,
3126,
3033,
2902,
2894,
2778,
2738,
2657,
2471,
2361,
2299,
2209,
2149,
2087,
1987,
1934,
1859,
1880,
1738,
1734,
1579,
1735,
1544,
1441,
1385,
1294,
1288,
1303,
1232,
1142,
1066,
1027,
1032,
1016,
965,
926,
856,
825,
820,
775,
696,
699,
623,
664,
632,
589,
580,
555,
500,
473,
455,
438,
388,
384,
356,
368,
352,
333,
323,
294,
283,
248,
271,
251,
216,
231,
186,
211,
160,
159,
177,
165,
135,
147,
110,
119,
102,
94,
79,
78,
81,
64,
76,
51,
53,
63,
46,
49,
59,
41,
35,
22,
29,
38,
24,
18,
25,
18,
14,
17,
6,
3,
1,
5,
2,
2,
1,
0,
0,
0,
0,
0,
0,
0,
0,
0,
0,
0,
0,
0,
0,
0,
0,
0,
0,
0,
0,
0,
0,
0,
0,
0,
0,
0,
0,
0,
0,
0,
0,
0,
0,
0,
0,
0,
0,
0,
0,
0,
0,
0,
0,
0,
0,
0,
0,
0,
0,
0,
0,
0,
0,
0,
0,
0,
0,
0,
0,
0,
0,
0,
0,
0,
0,
0,
0,
0,
0,
0,
0,
0,
0,
0,
0,
0,
0,
0,
0,
0,
0,
0,
0,
0,
0,
0,
0,
0,
0,
0,
0,
0,
0,
0,
0,
0,
0,
0,
0,
0,
0,
0,
0,
0,
0,
0,
0,
0,
0,
0,
0,
0,
0,
0,
0,
0,
0,
#ENDOFDATA   :