File: NeXLSpectrum/HyperSpectra/PTX/Mo std.msa
#FORMAT      : EMSA/MAS Spectral Data File
#VERSION     : 1.0
#TITLE       : Mo std
#DATE        : 15-MAY-2018
#TIME        : 02:21
#OWNER       : Unknown
#NPOINTS     : 4096
#NCOLUMNS    : 1
#XUNITS      : eV
#YUNITS      : counts
#DATATYPE    : Y
#XPERCHAN    : 9.99856
#OFFSET      : 1.63032
#BEAMKV      : 25
#SIGNALTYPE  : EDS
#ELEVANGLE   : 35
#AZIMANGLE   : 0
#LIVETIME    : 1162.8
#REALTIME    : 1707.81
#PROBECUR    : 0.94129
#TDEADLYR    : 0
#TACTLYR     : 0.045
#TALWIND     : 0.003
#CHOFFSET    : 0.0
#XLABEL      : Energy (eV)
#YLABEL      : Counts
#EDSDET      : SDUTW
##SPECIMEN   : Mo std
##D2STDCMP   : Mo,(Mo:100.0),5.0
##DET_HASH   : 97086dfe-e5c2-9c77-3984-1d0b14bbbf41
##CALIB_HASH : 1a36e884-c26d-3547-51b1-d0bb2efdf95a
##WORKING    : 16.99 mm
##SAMPLE     : <BulkSample id="1">\n<mOrientation id="2">\n<double>0.0</double>\n<double>0.0</double>\n<double>-1.0</double>\n</mOrientation>\n</BulkSample>
#SPECTRUM    :
21,
1065,
21799,
10488,
70468,
28303,
25959,
33135,
41034,
48610,
54441,
59330,
60278,
65297,
98401,
112358,
1087912,
1388856,
227106,
40549,
34513,
24069,
24151,
24948,
26129,
27071,
27570,
27896,
28330,
28606,
28912,
29212,
30032,
36532,
33291,
28762,
28203,
27584,
27176,
27817,
26333,
25838,
25795,
25063,
24712,
24485,
25979,
23412,
23131,
22967,
22333,
21693,
21316,
21417,
20572,
20131,
19343,
19016,
18816,
18511,
17879,
17377,
17312,
16570,
16213,
15605,
15463,
15405,
14780,
14645,
14272,
14030,
13358,
13238,
12914,
13510,
12730,
11740,
11676,
11176,
10974,
10613,
10272,
10041,
9799,
9389,
9175,
8937,
8861,
8391,
9181,
8204,
7684,
7499,
7183,
7059,
6790,
6404,
6384,
6133,
5985,
5652,
5463,
5347,
5092,
4952,
4802,
4557,
4512,
4269,
4146,
3992,
4082,
3868,
3559,
3471,
3345,
3162,
3101,
2934,
2853,
2613,
2591,
4854,
15344,
16482,
4528,
2141,
1999,
1859,
1806,
1684,
1643,
1509,
1446,
1403,
1355,
1300,
1270,
2013,
3175,
1791,
1275,
1086,
844,
753,
732,
685,
671,
620,
616,
515,
494,
521,
423,
437,
382,
350,
330,
298,
275,
281,
223,
234,
194,
187,
171,
141,
124,
131,
79,
76,
70,
51,
66,
41,
30,
12,
10,
7,
5,
3,
5,
2,
3,
5,
3,
3,
4,
1,
2,
1,
0,
2,
1,
1,
2,
0,
1,
0,
0,
1,
0,
1,
0,
0,
3,
2,
2,
0,
0,
0,
0,
0,
0,
0,
1,
0,
0,
0,
1,
1,
1,
0,
0,
0,
0,
1,
0,
0,
0,
0,
0,
0,
0,
0,
0,
0,
0,
0,
0,
0,
0,
1,
0,
0,
0,
0,
0,
0,
0,
0,
0,
0,
0,
0,
0,
0,
0,
0,
0,
0,
0,
0,
0,
0,
0,
0,
0,
0,
0,
0,
0,
0,
0,
0,
0,
0,
1,
0,
0,
0,
0,
0,
0,
0,
0,
0,
0,
0,
0,
0,
0,
0,
#ENDOFDATA   :