File: NeXLSpectrum/HyperSpectra/PTX/Si std.msa
#FORMAT      : EMSA/MAS Spectral Data File
#VERSION     : 1.0
#TITLE       : Si std
#DATE        : 15-MAY-2018
#TIME        : 09:22
#OWNER       : Unknown
#NPOINTS     : 4096
#NCOLUMNS    : 1
#XUNITS      : eV
#YUNITS      : counts
#DATATYPE    : Y
#XPERCHAN    : 9.99856
#OFFSET      : 1.63032
#BEAMKV      : 25
#SIGNALTYPE  : EDS
#ELEVANGLE   : 35
#AZIMANGLE   : 0
#LIVETIME    : 1149.75
#REALTIME    : 1872.97
#PROBECUR    : 0.95147
#TDEADLYR    : 0
#TACTLYR     : 0.045
#TALWIND     : 0.003
#CHOFFSET    : 0.0
#XLABEL      : Energy (eV)
#YLABEL      : Counts
#EDSDET      : SDUTW
##SPECIMEN   : Si std
##D2STDCMP   : Si,(Si:100.0),2.95
##DET_HASH   : 97086dfe-e5c2-9c77-3984-1d0b14bbbf41
##CALIB_HASH : 1a36e884-c26d-3547-51b1-d0bb2efdf95a
##WORKING    : 16.99 mm
##SAMPLE     : <BulkSample id="1">\n<mOrientation id="2">\n<double>0.0</double>\n<double>0.0</double>\n<double>-1.0</double>\n</mOrientation>\n</BulkSample>
#SPECTRUM    :
19,
63,
9630,
7137,
12304,
19597,
28298,
37174,
44357,
49898,
59859,
83792,
2158170,
1045822,
10653,
9434,
11231,
12009,
12990,
13802,
14373,
14695,
15209,
15831,
17240,
73739,
17069,
14370,
14118,
14260,
13824,
13524,
13158,
13050,
12869,
12451,
12115,
12000,
11589,
11498,
10832,
10614,
10265,
9970,
9670,
9579,
9735,
8816,
8584,
8330,
8208,
7785,
7635,
7679,
7303,
6978,
6838,
6555,
6426,
6190,
6167,
5921,
5727,
5589,
5454,
5294,
5156,
4930,
4760,
4512,
4550,
4471,
4142,
4052,
4023,
4170,
3763,
3687,
3590,
3304,
3331,
3235,
3132,
3048,
2936,
2934,
2719,
2599,
2476,
2635,
2478,
2363,
2200,
2160,
2021,
1961,
1905,
1901,
1819,
1669,
1627,
1536,
1515,
1450,
1425,
1380,
1264,
1183,
1132,
1225,
1106,
1029,
1053,
944,
913,
897,
789,
830,
772,
734,
697,
606,
573,
564,
560,
588,
524,
503,
488,
446,
433,
408,
363,
349,
315,
302,
320,
273,
273,
259,
248,
213,
214,
223,
184,
157,
159,
169,
133,
121,
122,
115,
111,
97,
91,
79,
79,
65,
60,
59,
48,
42,
47,
39,
36,
28,
28,
30,
34,
23,
22,
17,
12,
12,
11,
8,
4,
8,
4,
0,
0,
1,
0,
0,
0,
0,
0,
1,
0,
0,
0,
0,
1,
1,
0,
0,
0,
0,
0,
0,
0,
1,
0,
0,
0,
0,
0,
0,
0,
0,
1,
0,
0,
0,
0,
0,
0,
0,
0,
0,
0,
0,
0,
0,
0,
0,
0,
0,
0,
0,
0,
0,
0,
0,
0,
0,
0,
0,
0,
0,
0,
0,
0,
0,
0,
0,
0,
0,
0,
0,
0,
0,
0,
0,
0,
0,
0,
0,
0,
0,
0,
0,
0,
0,
0,
0,
0,
0,
0,
0,
0,
0,
0,
0,
0,
0,
0,
0,
0,
0,
0,
0,
0,
0,
0,
0,
0,
0,
0,
0,
0,
0,
0,
0,
#ENDOFDATA   :