File: NeXLSpectrum/HyperSpectra/PTX/Spectrum[2].msa
#FORMAT      : EMSA/MAS Spectral Data File
#VERSION     : 1.0
#TITLE       : Sum[det=2]
#DATE        : 31-DEC-1969
#TIME        : 07:00
#OWNER       : Unknown
#NPOINTS     : 2048
#NCOLUMNS    : 1
#XUNITS      : eV
#YUNITS      : counts
#DATATYPE    : Y
#XPERCHAN    : 10
#OFFSET      : 0
#SIGNALTYPE  : EDS
#LIVETIME    : 0
#REALTIME    : 0
#CHOFFSET    : 0.0
#XLABEL      : Energy (eV)
#YLABEL      : Counts
##SPECIMEN   : Sum[det=2]
#SPECTRUM    :
0,
0,
4,
1884,
44684,
541,
401,
4963,
2201,
757,
2199,
559,
450,
673,
736,
1388,
705,
765,
896,
826,
909,
1041,
950,
901,
1042,
1611,
960,
854,
909,
970,
853,
844,
1109,
2590,
984,
822,
748,
751,
667,
674,
652,
626,
611,
570,
583,
548,
563,
559,
499,
548,
481,
509,
503,
487,
460,
466,
458,
430,
393,
401,
391,
407,
393,
430,
467,
374,
373,
403,
350,
372,
360,
312,
309,
314,
292,
280,
304,
264,
288,
274,
251,
271,
271,
262,
249,
281,
233,
256,
257,
330,
1319,
4888,
4581,
1142,
293,
225,
196,
203,
222,
274,
618,
875,
470,
199,
156,
183,
163,
158,
183,
134,
156,
131,
137,
148,
211,
239,
197,
156,
135,
129,
131,
137,
119,
124,
114,
138,
130,
133,
114,
128,
92,
112,
114,
110,
101,
93,
117,
120,
88,
99,
80,
81,
112,
102,
97,
85,
104,
93,
82,
89,
109,
94,
83,
86,
85,
86,
79,
77,
76,
82,
65,
70,
71,
84,
64,
74,
59,
67,
63,
61,
52,
56,
68,
53,
47,
58,
70,
62,
62,
64,
54,
41,
57,
42,
47,
55,
45,
46,
36,
39,
39,
32,
37,
35,
46,
43,
38,
40,
37,
45,
42,
31,
44,
29,
36,
24,
33,
31,
32,
21,
31,
20,
26,
23,
23,
28,
30,
26,
27,
31,
28,
21,
24,
26,
22,
19,
17,
23,
27,
13,
11,
22,
19,
16,
24,
21,
24,
20,
10,
25,
18,
17,
10,
18,
11,
16,
9,
11,
12,
10,
13,
14,
8,
12,
5,
14,
8,
10,
9,
17,
9,
10,
7,
9,
6,
8,
6,
4,
10,
14,
6,
9,
6,
5,
10,
5,
4,
4,
12,
5,
3,
4,
4,
5,
8,
4,
3,
3,
4,
4,
6,
1,
8,
3,
#ENDOFDATA   :