File: NeXLSpectrum/HyperSpectra/PTX/Spectrum[3].msa
#FORMAT      : EMSA/MAS Spectral Data File
#VERSION     : 1.0
#TITLE       : Sum[det=3]
#DATE        : 31-DEC-1969
#TIME        : 07:00
#OWNER       : Unknown
#NPOINTS     : 2048
#NCOLUMNS    : 1
#XUNITS      : eV
#YUNITS      : counts
#DATATYPE    : Y
#XPERCHAN    : 10
#OFFSET      : 0
#SIGNALTYPE  : EDS
#LIVETIME    : 0
#REALTIME    : 0
#CHOFFSET    : 0.0
#XLABEL      : Energy (eV)
#YLABEL      : Counts
##SPECIMEN   : Sum[det=3]
#SPECTRUM    :
0,
0,
7,
4375,
42288,
676,
464,
6227,
2997,
938,
2704,
740,
516,
797,
907,
1478,
823,
842,
951,
992,
993,
1156,
1100,
1006,
1222,
1875,
1127,
945,
962,
1154,
953,
956,
1422,
2809,
1185,
923,
895,
836,
815,
722,
686,
658,
681,
668,
690,
620,
585,
655,
619,
504,
541,
621,
568,
521,
568,
482,
469,
493,
492,
452,
431,
403,
432,
495,
541,
441,
413,
377,
382,
432,
400,
380,
339,
345,
352,
321,
317,
330,
301,
324,
290,
284,
329,
279,
286,
254,
285,
277,
259,
377,
1602,
5662,
4897,
1281,
309,
276,
244,
221,
284,
340,
754,
928,
448,
228,
204,
173,
165,
197,
155,
176,
170,
159,
176,
166,
266,
297,
222,
156,
159,
168,
151,
139,
143,
151,
149,
138,
125,
171,
160,
119,
114,
101,
107,
132,
128,
100,
127,
103,
119,
119,
120,
116,
114,
93,
87,
72,
95,
100,
102,
100,
93,
73,
108,
97,
92,
89,
80,
93,
78,
79,
77,
91,
72,
72,
67,
72,
67,
74,
70,
58,
63,
74,
63,
64,
57,
59,
57,
49,
61,
50,
78,
58,
56,
51,
65,
53,
57,
50,
56,
60,
56,
46,
50,
48,
39,
52,
33,
33,
49,
36,
44,
43,
41,
36,
39,
28,
34,
34,
38,
38,
38,
25,
28,
27,
34,
32,
35,
24,
19,
26,
36,
27,
33,
24,
31,
24,
23,
23,
18,
18,
21,
21,
20,
16,
18,
17,
16,
24,
17,
17,
17,
15,
12,
11,
9,
17,
19,
23,
11,
16,
11,
11,
15,
16,
9,
16,
13,
10,
14,
6,
11,
15,
9,
11,
13,
16,
8,
8,
13,
10,
8,
7,
7,
8,
8,
5,
4,
5,
4,
8,
9,
4,
3,
7,
9,
9,
5,
5,
2,
3,
4,
3,
5,
3,
#ENDOFDATA   :