File: NeXLSpectrum/HyperSpectra/PTX/Spectrum[1].msa
#FORMAT      : EMSA/MAS Spectral Data File
#VERSION     : 1.0
#TITLE       : Sum[det=1]
#DATE        : 31-DEC-1969
#TIME        : 07:00
#OWNER       : Unknown
#NPOINTS     : 2048
#NCOLUMNS    : 1
#XUNITS      : eV
#YUNITS      : counts
#DATATYPE    : Y
#XPERCHAN    : 10
#OFFSET      : 0
#SIGNALTYPE  : EDS
#LIVETIME    : 0
#REALTIME    : 0
#CHOFFSET    : 0.0
#XLABEL      : Energy (eV)
#YLABEL      : Counts
##SPECIMEN   : Sum[det=1]
#SPECTRUM    :
0,
0,
9,
2877,
40731,
430,
354,
4265,
2015,
613,
1606,
465,
450,
659,
769,
1325,
657,
780,
885,
880,
870,
1013,
946,
825,
1034,
1617,
981,
813,
839,
965,
789,
771,
1208,
2580,
1011,
859,
768,
750,
699,
641,
646,
632,
625,
596,
539,
577,
538,
567,
525,
489,
450,
506,
499,
499,
478,
412,
444,
390,
422,
362,
401,
369,
389,
392,
473,
362,
372,
317,
349,
361,
307,
307,
295,
324,
307,
296,
265,
271,
271,
244,
246,
237,
245,
242,
250,
258,
240,
223,
238,
331,
1619,
5148,
4267,
1070,
264,
222,
210,
207,
208,
337,
728,
885,
405,
186,
165,
165,
145,
153,
162,
140,
154,
146,
126,
167,
227,
257,
177,
146,
121,
131,
136,
121,
132,
120,
129,
115,
130,
118,
138,
117,
120,
101,
104,
103,
121,
95,
119,
104,
103,
95,
93,
88,
82,
83,
98,
85,
86,
89,
66,
96,
88,
72,
83,
53,
73,
57,
79,
71,
69,
68,
91,
80,
59,
60,
60,
67,
73,
57,
65,
64,
64,
66,
61,
58,
48,
65,
77,
60,
59,
41,
56,
46,
54,
59,
51,
35,
45,
49,
34,
50,
43,
43,
34,
37,
45,
39,
43,
32,
34,
34,
33,
34,
30,
32,
36,
42,
34,
20,
30,
21,
32,
18,
33,
16,
28,
20,
27,
17,
23,
15,
25,
19,
25,
27,
20,
26,
22,
18,
22,
15,
19,
14,
18,
14,
24,
20,
12,
14,
16,
21,
18,
12,
12,
10,
14,
7,
14,
11,
9,
3,
12,
13,
13,
10,
12,
13,
10,
6,
9,
6,
10,
9,
7,
7,
8,
5,
5,
6,
8,
1,
10,
5,
2,
2,
8,
5,
7,
6,
8,
4,
5,
3,
7,
3,
1,
5,
2,
4,
5,
2,
1,
0,
3,
4,
#ENDOFDATA   :