File: NeXLSpectrum/HyperSpectra/PTX/Spectrum[0].msa
#FORMAT      : EMSA/MAS Spectral Data File
#VERSION     : 1.0
#TITLE       : Sum[det=0]
#DATE        : 31-DEC-1969
#TIME        : 07:00
#OWNER       : Unknown
#NPOINTS     : 2048
#NCOLUMNS    : 1
#XUNITS      : eV
#YUNITS      : counts
#DATATYPE    : Y
#XPERCHAN    : 10
#OFFSET      : 0
#SIGNALTYPE  : EDS
#LIVETIME    : 0
#REALTIME    : 0
#CHOFFSET    : 0.0
#XLABEL      : Energy (eV)
#YLABEL      : Counts
##SPECIMEN   : Sum[det=0]
#SPECTRUM    :
11,
0,
12,
5335,
44363,
637,
474,
5234,
2563,
771,
2329,
608,
504,
695,
873,
1485,
790,
870,
1008,
976,
1016,
1142,
1044,
937,
1162,
1589,
1061,
960,
1044,
1054,
952,
901,
1397,
2863,
1218,
991,
832,
841,
770,
709,
722,
750,
694,
684,
668,
633,
611,
634,
610,
598,
548,
599,
534,
510,
507,
538,
498,
502,
431,
510,
407,
403,
451,
465,
577,
498,
422,
370,
402,
437,
396,
389,
361,
367,
356,
332,
297,
304,
314,
279,
304,
289,
267,
311,
295,
276,
275,
285,
245,
369,
1770,
5858,
4846,
1218,
323,
277,
237,
236,
259,
353,
844,
971,
478,
230,
215,
187,
186,
166,
173,
155,
174,
159,
173,
215,
257,
303,
221,
162,
152,
160,
149,
138,
149,
151,
133,
132,
150,
148,
123,
128,
120,
128,
123,
131,
105,
123,
109,
109,
137,
128,
101,
127,
99,
114,
112,
80,
112,
93,
95,
95,
105,
80,
87,
86,
105,
85,
83,
90,
70,
70,
79,
84,
70,
78,
80,
80,
56,
81,
71,
67,
95,
55,
65,
57,
63,
53,
49,
68,
58,
77,
54,
65,
63,
55,
58,
51,
46,
49,
57,
48,
54,
40,
50,
58,
44,
53,
56,
42,
37,
40,
41,
46,
34,
42,
38,
41,
36,
44,
42,
41,
25,
33,
40,
26,
33,
34,
36,
20,
24,
44,
24,
19,
32,
27,
24,
26,
35,
17,
17,
21,
21,
25,
16,
18,
23,
20,
18,
22,
21,
12,
17,
16,
18,
19,
7,
17,
12,
19,
23,
17,
16,
13,
11,
16,
15,
9,
11,
8,
17,
11,
11,
10,
7,
16,
12,
4,
19,
8,
14,
7,
12,
11,
8,
8,
5,
5,
8,
6,
8,
9,
5,
9,
3,
9,
5,
8,
6,
10,
3,
7,
3,
9,
5,
5,
#ENDOFDATA   :