File: NeXLSpectrum/HyperSpectra/PTX/Ti std.msa
#FORMAT      : EMSA/MAS Spectral Data File
#VERSION     : 1.0
#TITLE       : Ti std
#DATE        : 15-MAY-2018
#TIME        : 11:27
#OWNER       : Unknown
#NPOINTS     : 4096
#NCOLUMNS    : 1
#XUNITS      : eV
#YUNITS      : counts
#DATATYPE    : Y
#XPERCHAN    : 9.99856
#OFFSET      : 1.63032
#BEAMKV      : 25
#SIGNALTYPE  : EDS
#ELEVANGLE   : 35
#AZIMANGLE   : 0
#LIVETIME    : 1171.82
#REALTIME    : 1687.44
#PROBECUR    : 0.94651
#TDEADLYR    : 0
#TACTLYR     : 0.045
#TALWIND     : 0.003
#CHOFFSET    : 0.0
#XLABEL      : Energy (eV)
#YLABEL      : Counts
#EDSDET      : SDUTW
##SPECIMEN   : Ti std
##D2STDCMP   : Ti,(Ti:100.0),5.0
##DET_HASH   : 97086dfe-e5c2-9c77-3984-1d0b14bbbf41
##CALIB_HASH : 1a36e884-c26d-3547-51b1-d0bb2efdf95a
##WORKING    : 16.99 mm
##SAMPLE     : <BulkSample id="1">\n<mOrientation id="2">\n<double>0.0</double>\n<double>0.0</double>\n<double>-1.0</double>\n</mOrientation>\n</BulkSample>
#SPECTRUM    :
28,
61,
16885,
149148,
12250,
8857,
11585,
15667,
20586,
25206,
28642,
32013,
34162,
36667,
36684,
37646,
38533,
38625,
38622,
40311,
58009,
36876,
36492,
36964,
34047,
33703,
33129,
32810,
32375,
30208,
30813,
53947,
2878623,
387080,
35837,
376078,
72429,
12901,
13303,
13433,
13096,
12639,
12983,
12922,
12329,
12828,
13486,
12296,
11736,
11815,
11576,
11389,
11266,
10985,
10772,
10444,
10239,
10017,
9838,
9393,
9291,
9188,
9149,
8961,
14677,
14255,
8195,
9489,
9208,
7425,
7592,
7084,
6979,
6685,
6622,
6784,
6374,
5950,
5837,
5619,
5571,
5447,
5237,
5062,
4893,
4939,
4688,
4402,
4565,
4421,
4409,
4049,
3827,
3730,
3421,
3514,
3435,
3255,
3180,
3077,
2743,
2847,
2644,
2578,
2472,
2467,
2364,
2251,
2131,
2139,
2002,
1921,
1893,
1775,
1710,
1636,
1567,
1490,
1493,
1334,
1392,
1187,
1154,
1125,
1045,
1104,
1044,
960,
901,
881,
796,
759,
742,
672,
650,
603,
547,
528,
539,
473,
458,
491,
395,
408,
389,
322,
300,
313,
263,
247,
223,
250,
199,
249,
181,
180,
156,
124,
120,
127,
131,
107,
97,
96,
71,
78,
64,
49,
48,
36,
30,
36,
29,
20,
20,
18,
5,
7,
5,
3,
1,
1,
1,
0,
0,
2,
0,
2,
0,
0,
0,
0,
1,
0,
2,
0,
1,
1,
1,
0,
0,
1,
1,
1,
0,
1,
2,
0,
1,
0,
0,
0,
0,
0,
0,
0,
0,
1,
0,
0,
0,
0,
1,
0,
0,
0,
0,
0,
0,
0,
0,
0,
0,
0,
0,
0,
0,
0,
0,
0,
1,
0,
0,
0,
0,
0,
0,
0,
0,
0,
0,
0,
0,
0,
0,
0,
0,
0,
2,
0,
0,
0,
0,
0,
0,
0,
0,
0,
0,
0,
0,
0,
0,
0,
0,
0,
0,
0,
0,
0,
0,
0,
0,
0,
0,
0,
0,
0,
0,
0,
0,
0,
0,
0,
#ENDOFDATA   :