File: NeXLSpectrum/Pyrite fragments/CuS_ChMxd_2_15kV10nA130kHz_132kHz_100s.msa
#FORMAT      : EMSA/MAS Spectral Data File
#VERSION     : 1.0
#TITLE       : Bruker Nano spectrum Acquisition
#DATE        : 23-AUG-2019
#TIME        : 09:14
#OWNER       : Bruker Nano
#NPOINTS     : 4096
#NCOLUMNS    : 1
#XUNITS      : eV
#YUNITS      : counts
#DATATYPE    : Y
#XPERCHAN    : 5.00257
#OFFSET      : -482.8305
#BEAMKV      : 15
#SIGNALTYPE  : EDS
#ELEVANGLE   : 40
#AZIMANGLE   : 45
#LIVETIME    : 100
#REALTIME    : 132.476
#PROBECUR    : 10
#TAUWIND     : 0
#TDEADLYR    : 0
#TACTLYR     : 0.045
#TALWIND     : 0.004
#CHOFFSET    : 0.0
#XLABEL      : Energy (eV)
#YLABEL      : Counts
#EDSDET      : SDUTW
##D2STDCMP   : CuS,(S:33.5369),(Cu:66.4631),4.6
##DET_HASH   : c6370f9e-cc72-7559-f57e-203d75c8942b
##CALIB_HASH : fcf71094-1a10-2882-685e-00197fff5925
##SAMPLE     : <BulkSample id="1">\n<mOrientation id="2">\n<double>0.0</double>\n<double>0.0</double>\n<double>-1.0</double>\n</mOrientation>\n</BulkSample>
#SPECTRUM    :
0,
0,
0,
0,
17,
54,
4286,
275082,
196,
1532,
1432,
5974,
1115,
1504,
3394,
3310,
4043,
5546,
15865,
22187,
221298,
42613,
4498,
3305,
3384,
3618,
3776,
3983,
4096,
4060,
4110,
4316,
4770,
4442,
4223,
4353,
4475,
4307,
5160,
48341,
162721,
23365,
15024,
6673,
3174,
3008,
2997,
2932,
3011,
3277,
3192,
2811,
2837,
2767,
2673,
2619,
2512,
2506,
2524,
2440,
2412,
2328,
2285,
2236,
2183,
2112,
2025,
2029,
2056,
1975,
2023,
1979,
1890,
1776,
1771,
1734,
1686,
1687,
1644,
1601,
1594,
1514,
1506,
1452,
1520,
1427,
1451,
1399,
1351,
1301,
1338,
1215,
1243,
1211,
1228,
1172,
1142,
1189,
1103,
1132,
1096,
1061,
1039,
1007,
968,
996,
947,
967,
968,
889,
845,
882,
863,
842,
901,
777,
804,
843,
829,
1061,
4695,
17911,
22805,
9008,
1656,
788,
685,
661,
662,
627,
627,
714,
939,
2199,
3474,
2267,
880,
534,
480,
458,
437,
427,
454,
440,
449,
417,
391,
406,
373,
414,
402,
393,
358,
364,
347,
357,
334,
337,
310,
341,
324,
305,
303,
263,
300,
262,
232,
264,
260,
220,
254,
236,
242,
212,
196,
193,
204,
202,
175,
186,
192,
183,
168,
160,
151,
118,
131,
157,
146,
113,
118,
151,
108,
111,
110,
105,
95,
86,
95,
77,
83,
71,
69,
65,
64,
46,
47,
43,
53,
40,
42,
26,
31,
40,
27,
10,
16,
18,
11,
4,
7,
0,
0,
3,
0,
0,
0,
0,
0,
1,
0,
2,
0,
0,
0,
0,
0,
0,
0,
0,
0,
0,
0,
0,
0,
0,
0,
0,
0,
0,
0,
0,
0,
0,
0,
0,
0,
0,
0,
0,
0,
0,
0,
0,
0,
0,
0,
0,
0,
0,
0,
0,
0,
0,
0,
0,
2,
0,
0,
0,
0,
0,
0,
0,
0,
0,
0,
0,
0,
0,
1,
0,
0,
0,
#ENDOFDATA   :