File: NeXLSpectrum/Pyrite fragments/CuS_ChMxd_3_15kV10nA130kHz_132kHz_100s.msa
#FORMAT      : EMSA/MAS Spectral Data File
#VERSION     : 1.0
#TITLE       : Bruker Nano spectrum Acquisition
#DATE        : 23-AUG-2019
#TIME        : 09:17
#OWNER       : Bruker Nano
#NPOINTS     : 4096
#NCOLUMNS    : 1
#XUNITS      : eV
#YUNITS      : counts
#DATATYPE    : Y
#XPERCHAN    : 5.00257
#OFFSET      : -482.8305
#BEAMKV      : 15
#SIGNALTYPE  : EDS
#ELEVANGLE   : 40
#AZIMANGLE   : 45
#LIVETIME    : 100
#REALTIME    : 132.46
#PROBECUR    : 10
#TAUWIND     : 0
#TDEADLYR    : 0
#TACTLYR     : 0.045
#TALWIND     : 0.004
#CHOFFSET    : 0.0
#XLABEL      : Energy (eV)
#YLABEL      : Counts
#EDSDET      : SDUTW
##D2STDCMP   : CuS,(S:33.5369),(Cu:66.4631),4.6
##DET_HASH   : c6370f9e-cc72-7559-f57e-203d75c8942b
##CALIB_HASH : fcf71094-1a10-2882-685e-00197fff5925
##SAMPLE     : <BulkSample id="1">\n<mOrientation id="2">\n<double>0.0</double>\n<double>0.0</double>\n<double>-1.0</double>\n</mOrientation>\n</BulkSample>
#SPECTRUM    :
0,
0,
0,
0,
14,
54,
4240,
275759,
212,
1514,
1400,
5912,
1133,
1562,
3315,
3143,
4040,
5417,
16029,
22223,
220319,
42858,
4525,
3276,
3444,
3532,
3902,
4079,
4192,
4071,
3972,
4239,
4696,
4349,
4272,
4315,
4507,
4427,
5052,
48380,
162213,
23319,
14814,
6729,
3221,
3010,
3051,
2937,
2953,
3118,
3257,
2860,
2765,
2690,
2588,
2651,
2521,
2566,
2499,
2449,
2377,
2299,
2223,
2227,
2213,
2162,
2081,
2008,
2020,
1947,
1947,
1932,
1852,
1828,
1755,
1705,
1718,
1690,
1638,
1657,
1563,
1592,
1526,
1483,
1446,
1436,
1388,
1403,
1329,
1301,
1284,
1317,
1217,
1254,
1253,
1221,
1130,
1190,
1146,
1203,
1047,
1093,
1007,
1040,
1021,
967,
926,
956,
914,
921,
905,
903,
877,
827,
869,
882,
782,
878,
881,
1073,
4689,
18033,
23069,
9107,
1608,
734,
676,
673,
678,
674,
633,
728,
904,
2152,
3381,
2277,
902,
554,
509,
483,
430,
469,
446,
410,
493,
406,
447,
404,
401,
419,
396,
356,
344,
353,
332,
346,
337,
323,
326,
314,
309,
284,
297,
261,
294,
285,
293,
260,
230,
266,
221,
236,
227,
222,
197,
212,
182,
216,
185,
179,
166,
183,
155,
144,
152,
131,
138,
141,
127,
118,
87,
111,
106,
111,
79,
79,
103,
74,
81,
86,
76,
75,
78,
60,
76,
57,
37,
56,
48,
41,
35,
26,
24,
31,
19,
18,
19,
9,
10,
9,
9,
7,
0,
0,
0,
0,
0,
0,
0,
0,
3,
0,
0,
0,
3,
0,
0,
2,
0,
0,
0,
0,
0,
0,
0,
0,
0,
0,
0,
0,
0,
0,
0,
0,
0,
0,
0,
0,
0,
0,
0,
0,
0,
0,
0,
2,
0,
0,
0,
1,
0,
0,
0,
0,
0,
0,
0,
0,
3,
0,
0,
0,
0,
0,
1,
0,
0,
0,
0,
0,
0,
0,
1,
0,
#ENDOFDATA   :