File: NeXLSpectrum/Pyrite fragments/CuS_ChMxd_1_15kV10nA130kHz_132kHz_100s.msa
#FORMAT      : EMSA/MAS Spectral Data File
#VERSION     : 1.0
#TITLE       : Bruker Nano spectrum Acquisition
#DATE        : 23-AUG-2019
#TIME        : 09:11
#OWNER       : Bruker Nano
#NPOINTS     : 4096
#NCOLUMNS    : 1
#XUNITS      : eV
#YUNITS      : counts
#DATATYPE    : Y
#XPERCHAN    : 5.00257
#OFFSET      : -482.8305
#BEAMKV      : 15
#SIGNALTYPE  : EDS
#ELEVANGLE   : 40
#AZIMANGLE   : 45
#LIVETIME    : 100
#REALTIME    : 132.446
#PROBECUR    : 10
#TAUWIND     : 0
#TDEADLYR    : 0
#TACTLYR     : 0.045
#TALWIND     : 0.004
#CHOFFSET    : 0.0
#XLABEL      : Energy (eV)
#YLABEL      : Counts
#EDSDET      : SDUTW
##D2STDCMP   : CuS,(S:33.5369),(Cu:66.4631),4.6
##DET_HASH   : c6370f9e-cc72-7559-f57e-203d75c8942b
##CALIB_HASH : fcf71094-1a10-2882-685e-00197fff5925
##SAMPLE     : <BulkSample id="1">\n<mOrientation id="2">\n<double>0.0</double>\n<double>0.0</double>\n<double>-1.0</double>\n</mOrientation>\n</BulkSample>
#SPECTRUM    :
0,
0,
0,
0,
4,
47,
4327,
275647,
185,
1478,
1419,
6123,
1150,
1538,
3435,
3375,
4131,
5618,
15981,
22254,
217963,
42299,
4450,
3408,
3466,
3607,
3905,
4048,
4219,
4112,
4039,
4420,
4755,
4426,
4229,
4354,
4410,
4446,
5167,
48671,
162540,
23560,
15170,
6798,
3247,
3078,
3073,
2976,
2869,
3325,
3368,
2843,
2957,
2840,
2652,
2595,
2563,
2460,
2452,
2486,
2436,
2336,
2296,
2197,
2300,
2122,
2103,
1929,
2060,
1974,
2045,
1949,
1903,
1837,
1756,
1799,
1729,
1741,
1632,
1601,
1541,
1562,
1550,
1416,
1510,
1433,
1417,
1397,
1335,
1280,
1245,
1329,
1237,
1232,
1179,
1162,
1242,
1189,
1124,
1078,
1124,
1114,
1061,
1038,
949,
973,
1011,
988,
972,
984,
897,
897,
863,
840,
838,
865,
850,
808,
838,
1054,
4613,
17616,
22881,
9055,
1620,
727,
740,
666,
646,
649,
616,
695,
902,
2171,
3501,
2339,
912,
552,
480,
466,
448,
478,
499,
455,
452,
421,
395,
419,
410,
384,
408,
377,
373,
374,
361,
351,
312,
320,
317,
318,
279,
283,
292,
295,
264,
260,
261,
283,
247,
265,
226,
222,
224,
221,
209,
190,
194,
232,
173,
194,
175,
173,
192,
164,
143,
143,
125,
136,
159,
121,
107,
117,
114,
107,
97,
101,
97,
105,
84,
72,
82,
69,
65,
54,
51,
62,
57,
40,
35,
42,
29,
34,
25,
25,
31,
24,
14,
22,
10,
7,
10,
0,
0,
0,
1,
1,
0,
0,
0,
0,
0,
0,
0,
0,
3,
0,
0,
0,
0,
0,
1,
0,
1,
0,
0,
2,
0,
0,
1,
0,
0,
0,
0,
0,
2,
1,
0,
0,
0,
0,
1,
0,
0,
0,
0,
0,
0,
0,
0,
1,
0,
0,
0,
0,
0,
0,
0,
0,
0,
0,
0,
0,
0,
0,
0,
0,
0,
0,
0,
0,
0,
0,
0,
0,
#ENDOFDATA   :