File: NeXLSpectrum/Pyrite fragments/Fe_StdC_2_15kV10nA130kHz_99kHz_100s.msa
#FORMAT      : EMSA/MAS Spectral Data File
#VERSION     : 1.0
#TITLE       : Bruker Nano spectrum Acquisition
#DATE        : 23-AUG-2019
#TIME        : 09:03
#OWNER       : Bruker Nano
#NPOINTS     : 4096
#NCOLUMNS    : 1
#XUNITS      : eV
#YUNITS      : counts
#DATATYPE    : Y
#XPERCHAN    : 5.00257
#OFFSET      : -482.8305
#BEAMKV      : 15
#SIGNALTYPE  : EDS
#ELEVANGLE   : 40
#AZIMANGLE   : 45
#LIVETIME    : 100
#REALTIME    : 122.701
#PROBECUR    : 10
#TAUWIND     : 0
#TDEADLYR    : 0
#TACTLYR     : 0.045
#TALWIND     : 0.004
#CHOFFSET    : 0.0
#XLABEL      : Energy (eV)
#YLABEL      : Counts
#EDSDET      : SDUTW
##D2STDCMP   : Fe,(Fe:100.0),7.87
##DET_HASH   : c6370f9e-cc72-7559-f57e-203d75c8942b
##CALIB_HASH : fcf71094-1a10-2882-685e-00197fff5925
##SAMPLE     : <BulkSample id="1">\n<mOrientation id="2">\n<double>0.0</double>\n<double>0.0</double>\n<double>-1.0</double>\n</mOrientation>\n</BulkSample>
#SPECTRUM    :
0,
0,
0,
0,
9,
40,
2737,
164797,
97,
863,
1988,
7978,
1794,
2566,
5603,
13749,
37578,
110943,
5615,
2277,
2216,
2543,
2817,
3071,
3302,
3789,
3894,
3980,
4211,
4107,
4151,
4537,
4840,
4445,
4315,
4410,
4439,
4262,
4362,
4370,
4275,
4306,
4177,
4070,
3991,
3999,
3828,
3747,
3652,
3576,
3544,
3506,
3380,
3361,
3216,
3191,
3192,
3134,
3019,
2936,
2901,
2784,
2714,
2608,
2606,
2483,
2424,
2446,
2401,
2273,
2260,
2325,
2193,
2101,
2124,
2055,
1979,
1859,
1874,
1831,
1805,
1717,
1797,
1731,
1741,
1737,
1680,
1547,
1657,
1505,
1529,
1482,
1521,
1511,
1486,
1636,
3240,
24968,
81945,
59770,
10476,
1750,
1367,
1255,
1334,
1424,
3048,
9242,
10944,
4199,
1180,
895,
821,
895,
878,
827,
785,
779,
790,
775,
744,
762,
733,
674,
709,
670,
674,
683,
673,
631,
635,
659,
648,
611,
634,
568,
544,
532,
556,
555,
509,
514,
517,
485,
488,
486,
466,
480,
435,
437,
444,
464,
412,
386,
391,
383,
372,
402,
394,
375,
338,
355,
306,
304,
301,
305,
299,
311,
256,
253,
248,
262,
258,
248,
211,
265,
210,
235,
227,
215,
205,
205,
191,
165,
179,
161,
165,
124,
133,
114,
124,
116,
114,
114,
113,
105,
99,
88,
77,
86,
75,
82,
75,
64,
71,
65,
52,
49,
43,
40,
39,
37,
33,
22,
27,
19,
17,
11,
17,
4,
4,
1,
0,
3,
0,
1,
0,
0,
0,
1,
0,
3,
0,
0,
0,
0,
0,
0,
1,
0,
0,
0,
0,
0,
0,
0,
0,
0,
0,
0,
0,
0,
0,
2,
1,
0,
1,
2,
0,
0,
0,
0,
0,
0,
1,
0,
0,
1,
0,
0,
0,
0,
0,
0,
0,
0,
0,
0,
0,
0,
1,
0,
0,
0,
0,
0,
2,
1,
0,
0,
0,
0,
0,
0,
#ENDOFDATA   :