File: NeXLSpectrum/Pyrite fragments/Fe_StdC_1_15kV10nA130kHz_99kHz_100s.msa
#FORMAT      : EMSA/MAS Spectral Data File
#VERSION     : 1.0
#TITLE       : Bruker Nano spectrum Acquisition
#DATE        : 23-AUG-2019
#TIME        : 09:00
#OWNER       : Bruker Nano
#NPOINTS     : 4096
#NCOLUMNS    : 1
#XUNITS      : eV
#YUNITS      : counts
#DATATYPE    : Y
#XPERCHAN    : 5.00257
#OFFSET      : -482.8305
#BEAMKV      : 15
#SIGNALTYPE  : EDS
#ELEVANGLE   : 40
#AZIMANGLE   : 45
#LIVETIME    : 100
#REALTIME    : 122.798
#PROBECUR    : 10
#TAUWIND     : 0
#TDEADLYR    : 0
#TACTLYR     : 0.045
#TALWIND     : 0.004
#CHOFFSET    : 0.0
#XLABEL      : Energy (eV)
#YLABEL      : Counts
#EDSDET      : SDUTW
##D2STDCMP   : Fe,(Fe:100.0),7.87
##DET_HASH   : c6370f9e-cc72-7559-f57e-203d75c8942b
##CALIB_HASH : fcf71094-1a10-2882-685e-00197fff5925
##SAMPLE     : <BulkSample id="1">\n<mOrientation id="2">\n<double>0.0</double>\n<double>0.0</double>\n<double>-1.0</double>\n</mOrientation>\n</BulkSample>
#SPECTRUM    :
0,
0,
0,
0,
3,
29,
2581,
164841,
127,
785,
1988,
7821,
1782,
2607,
5968,
13840,
37697,
110150,
5811,
2337,
2217,
2455,
2840,
3102,
3473,
3814,
3774,
3917,
4117,
4111,
4257,
4502,
4738,
4509,
4308,
4379,
4378,
4361,
4287,
4259,
4270,
4326,
4091,
4111,
4073,
3948,
3758,
3805,
3723,
3480,
3540,
3434,
3431,
3333,
3314,
3237,
3185,
3045,
2966,
2932,
2973,
2746,
2711,
2664,
2602,
2622,
2457,
2448,
2351,
2296,
2321,
2263,
2097,
2099,
2158,
2013,
2066,
1980,
1929,
1789,
1825,
1772,
1753,
1702,
1680,
1764,
1658,
1574,
1599,
1557,
1515,
1501,
1520,
1477,
1423,
1627,
3171,
25285,
82554,
60106,
10756,
1725,
1317,
1303,
1257,
1486,
3024,
9259,
10954,
4153,
1229,
921,
874,
849,
901,
825,
816,
816,
805,
773,
798,
759,
751,
727,
694,
680,
695,
647,
672,
666,
630,
683,
625,
575,
572,
573,
556,
539,
556,
567,
576,
511,
514,
477,
490,
472,
507,
460,
497,
422,
470,
422,
434,
409,
413,
387,
363,
405,
378,
365,
339,
324,
377,
327,
341,
298,
305,
299,
301,
285,
289,
266,
227,
232,
258,
232,
243,
183,
178,
173,
199,
193,
193,
176,
172,
151,
176,
144,
142,
126,
153,
135,
138,
105,
128,
96,
95,
100,
89,
74,
88,
81,
79,
70,
69,
61,
58,
45,
45,
42,
39,
33,
32,
27,
27,
27,
40,
14,
14,
13,
4,
1,
8,
0,
1,
0,
0,
0,
0,
0,
0,
0,
0,
0,
0,
0,
0,
0,
0,
0,
0,
0,
0,
0,
0,
0,
0,
1,
0,
0,
0,
0,
0,
0,
0,
0,
0,
0,
0,
0,
0,
1,
0,
0,
0,
0,
0,
1,
0,
0,
0,
0,
0,
0,
0,
0,
0,
0,
0,
0,
0,
1,
0,
0,
1,
0,
0,
0,
0,
0,
1,
0,
1,
0,
#ENDOFDATA   :