File: NeXLSpectrum/Pyrite fragments/Fe_StdC_3_15kV10nA130kHz_99kHz_100s.msa
#FORMAT      : EMSA/MAS Spectral Data File
#VERSION     : 1.0
#TITLE       : Bruker Nano spectrum Acquisition
#DATE        : 23-AUG-2019
#TIME        : 09:06
#OWNER       : Bruker Nano
#NPOINTS     : 4096
#NCOLUMNS    : 1
#XUNITS      : eV
#YUNITS      : counts
#DATATYPE    : Y
#XPERCHAN    : 5.00257
#OFFSET      : -482.8305
#BEAMKV      : 15
#SIGNALTYPE  : EDS
#ELEVANGLE   : 40
#AZIMANGLE   : 45
#LIVETIME    : 100
#REALTIME    : 122.816
#PROBECUR    : 10
#TAUWIND     : 0
#TDEADLYR    : 0
#TACTLYR     : 0.045
#TALWIND     : 0.004
#CHOFFSET    : 0.0
#XLABEL      : Energy (eV)
#YLABEL      : Counts
#EDSDET      : SDUTW
##D2STDCMP   : Fe,(Fe:100.0),7.87
##DET_HASH   : c6370f9e-cc72-7559-f57e-203d75c8942b
##CALIB_HASH : fcf71094-1a10-2882-685e-00197fff5925
##SAMPLE     : <BulkSample id="1">\n<mOrientation id="2">\n<double>0.0</double>\n<double>0.0</double>\n<double>-1.0</double>\n</mOrientation>\n</BulkSample>
#SPECTRUM    :
0,
0,
0,
0,
8,
40,
2608,
164950,
138,
844,
1964,
7791,
1819,
2676,
5825,
13803,
37427,
111078,
5658,
2343,
2149,
2536,
2771,
3138,
3388,
3698,
3871,
3982,
4145,
4179,
4186,
4434,
4864,
4444,
4373,
4390,
4387,
4352,
4335,
4319,
4256,
4122,
4167,
4019,
4032,
3969,
3866,
3624,
3731,
3690,
3548,
3376,
3439,
3267,
3235,
3132,
3076,
3090,
3026,
2905,
2936,
2719,
2628,
2705,
2613,
2539,
2442,
2507,
2361,
2347,
2276,
2327,
2203,
2064,
2100,
2076,
1986,
1968,
1912,
1890,
1835,
1886,
1807,
1739,
1712,
1659,
1714,
1655,
1530,
1543,
1566,
1610,
1544,
1415,
1420,
1624,
3225,
25478,
82747,
60217,
10493,
1726,
1334,
1286,
1259,
1438,
3066,
9242,
11096,
4147,
1219,
910,
836,
919,
886,
869,
814,
793,
789,
775,
788,
761,
726,
719,
736,
699,
709,
698,
658,
658,
642,
606,
562,
604,
619,
606,
585,
556,
589,
552,
506,
554,
506,
463,
495,
483,
471,
477,
481,
424,
436,
425,
405,
395,
377,
380,
433,
359,
354,
365,
367,
319,
329,
337,
313,
306,
303,
319,
257,
304,
270,
250,
257,
256,
231,
241,
231,
229,
199,
192,
205,
171,
162,
163,
178,
178,
151,
151,
149,
145,
127,
117,
127,
102,
124,
102,
84,
110,
84,
92,
75,
72,
80,
74,
70,
69,
54,
60,
65,
45,
57,
42,
28,
40,
31,
24,
12,
13,
13,
11,
6,
1,
0,
0,
0,
0,
0,
0,
0,
0,
0,
0,
0,
0,
0,
0,
0,
0,
1,
0,
0,
0,
0,
0,
0,
0,
0,
0,
0,
0,
0,
1,
0,
0,
0,
0,
0,
0,
0,
0,
0,
0,
0,
0,
1,
0,
0,
0,
0,
0,
0,
0,
0,
0,
0,
0,
0,
0,
0,
0,
0,
0,
0,
0,
1,
0,
0,
0,
0,
0,
0,
0,
0,
0,
#ENDOFDATA   :