File: NeXLSpectrum/Pyrite fragments/FeS_StdC_1_15kV10nA130kHz_153kHz_100s.msa
#FORMAT      : EMSA/MAS Spectral Data File
#VERSION     : 1.0
#TITLE       : Bruker Nano spectrum Acquisition
#DATE        : 23-AUG-2019
#TIME        : 10:07
#OWNER       : Bruker Nano
#NPOINTS     : 4096
#NCOLUMNS    : 1
#XUNITS      : eV
#YUNITS      : counts
#DATATYPE    : Y
#XPERCHAN    : 5.00257
#OFFSET      : -482.8305
#BEAMKV      : 15
#SIGNALTYPE  : EDS
#ELEVANGLE   : 40
#AZIMANGLE   : 45
#LIVETIME    : 100
#REALTIME    : 126.044
#PROBECUR    : 10
#TAUWIND     : 0
#TDEADLYR    : 0
#TACTLYR     : 0.045
#TALWIND     : 0.004
#CHOFFSET    : 0.0
#XLABEL      : Energy (eV)
#YLABEL      : Counts
#EDSDET      : SDUTW
##D2STDCMP   : FeS,(S:36.4748),(Fe:63.5252),4.74
##DET_HASH   : c6370f9e-cc72-7559-f57e-203d75c8942b
##CALIB_HASH : fcf71094-1a10-2882-685e-00197fff5925
##SAMPLE     : <BulkSample id="1">\n<mOrientation id="2">\n<double>0.0</double>\n<double>0.0</double>\n<double>-1.0</double>\n</mOrientation>\n</BulkSample>
#SPECTRUM    :
0,
0,
0,
0,
13,
39,
3153,
206261,
144,
1627,
1363,
6758,
1026,
1522,
4203,
6912,
16224,
49959,
4848,
2794,
2762,
3079,
3383,
3705,
4063,
4242,
4300,
4464,
4633,
4550,
4416,
4578,
5018,
4657,
4504,
4654,
4702,
4631,
5562,
56130,
187753,
26255,
17330,
7226,
3169,
2923,
2879,
2797,
2782,
2772,
2715,
2686,
2710,
2667,
2558,
2489,
2445,
2384,
2406,
2303,
2338,
2252,
2159,
2034,
2108,
2052,
1964,
1883,
1864,
1812,
1777,
1805,
1727,
1565,
1604,
1581,
1591,
1574,
1577,
1486,
1485,
1444,
1417,
1363,
1389,
1382,
1385,
1303,
1248,
1182,
1173,
1164,
1172,
1189,
1198,
1232,
2150,
15179,
48413,
35646,
6452,
1327,
997,
973,
1059,
1134,
2028,
5746,
6743,
2600,
946,
791,
743,
716,
729,
741,
650,
702,
704,
634,
641,
603,
568,
618,
610,
617,
598,
553,
557,
539,
513,
507,
502,
517,
521,
500,
453,
480,
427,
414,
455,
420,
434,
402,
410,
394,
417,
393,
368,
371,
363,
341,
340,
307,
336,
302,
284,
294,
262,
288,
308,
272,
268,
266,
274,
291,
237,
237,
238,
200,
200,
232,
223,
195,
205,
182,
183,
180,
178,
161,
154,
187,
134,
151,
129,
144,
126,
129,
83,
113,
104,
95,
92,
96,
81,
87,
91,
86,
75,
53,
57,
65,
66,
59,
49,
58,
56,
41,
41,
30,
29,
25,
31,
24,
19,
13,
12,
13,
6,
6,
4,
4,
0,
1,
0,
0,
0,
0,
0,
0,
3,
0,
0,
0,
0,
0,
0,
0,
0,
0,
1,
0,
0,
2,
0,
0,
0,
0,
0,
0,
0,
1,
1,
0,
0,
2,
0,
0,
0,
0,
0,
2,
0,
0,
1,
0,
0,
0,
0,
0,
1,
0,
0,
0,
0,
0,
0,
0,
0,
0,
0,
0,
0,
0,
0,
0,
0,
0,
0,
0,
0,
0,
0,
0,
#ENDOFDATA   :