File: NeXLSpectrum/Pyrite fragments/FeS_StdC_2_15kV10nA130kHz_153kHz_100s.msa
#FORMAT      : EMSA/MAS Spectral Data File
#VERSION     : 1.0
#TITLE       : Bruker Nano spectrum Acquisition
#DATE        : 23-AUG-2019
#TIME        : 10:10
#OWNER       : Bruker Nano
#NPOINTS     : 4096
#NCOLUMNS    : 1
#XUNITS      : eV
#YUNITS      : counts
#DATATYPE    : Y
#XPERCHAN    : 5.00257
#OFFSET      : -482.8305
#BEAMKV      : 15
#SIGNALTYPE  : EDS
#ELEVANGLE   : 40
#AZIMANGLE   : 45
#LIVETIME    : 100
#REALTIME    : 125.961
#PROBECUR    : 10
#TAUWIND     : 0
#TDEADLYR    : 0
#TACTLYR     : 0.045
#TALWIND     : 0.004
#CHOFFSET    : 0.0
#XLABEL      : Energy (eV)
#YLABEL      : Counts
#EDSDET      : SDUTW
##D2STDCMP   : FeS,(S:36.4748),(Fe:63.5252),4.74
##DET_HASH   : c6370f9e-cc72-7559-f57e-203d75c8942b
##CALIB_HASH : fcf71094-1a10-2882-685e-00197fff5925
##SAMPLE     : <BulkSample id="1">\n<mOrientation id="2">\n<double>0.0</double>\n<double>0.0</double>\n<double>-1.0</double>\n</mOrientation>\n</BulkSample>
#SPECTRUM    :
0,
0,
0,
0,
15,
49,
3251,
206222,
135,
1644,
1354,
6629,
981,
1421,
4315,
7137,
16043,
50133,
4850,
2783,
2713,
3042,
3415,
3658,
3972,
4275,
4282,
4468,
4582,
4533,
4423,
4627,
5050,
4547,
4449,
4488,
4680,
4547,
5321,
55622,
186868,
26242,
16921,
7193,
3093,
2953,
2828,
2935,
2850,
2807,
2721,
2698,
2610,
2609,
2514,
2502,
2459,
2417,
2365,
2407,
2254,
2223,
2095,
2111,
2167,
2069,
1968,
2008,
1898,
1833,
1829,
1896,
1753,
1570,
1533,
1581,
1582,
1597,
1554,
1511,
1466,
1516,
1416,
1414,
1298,
1341,
1287,
1313,
1317,
1266,
1184,
1233,
1211,
1196,
1177,
1280,
2130,
15338,
48632,
35838,
6432,
1222,
1028,
977,
1047,
1146,
2025,
5792,
6626,
2603,
951,
745,
770,
730,
723,
718,
683,
650,
680,
625,
648,
636,
605,
571,
617,
622,
588,
572,
589,
544,
508,
536,
513,
493,
463,
443,
459,
453,
447,
459,
451,
449,
424,
393,
415,
391,
398,
391,
383,
358,
383,
322,
334,
320,
358,
340,
313,
321,
309,
303,
284,
273,
297,
278,
226,
250,
262,
238,
249,
225,
206,
231,
200,
192,
226,
199,
186,
162,
166,
171,
161,
160,
150,
141,
133,
128,
125,
133,
122,
113,
94,
92,
99,
101,
99,
80,
87,
88,
71,
64,
64,
49,
55,
52,
42,
48,
53,
34,
35,
32,
35,
32,
26,
26,
21,
28,
17,
17,
11,
2,
5,
0,
2,
1,
0,
0,
0,
1,
0,
0,
0,
0,
0,
0,
0,
1,
0,
2,
0,
0,
0,
0,
0,
0,
0,
0,
0,
0,
0,
0,
1,
0,
0,
0,
0,
0,
0,
0,
0,
0,
2,
0,
2,
0,
0,
0,
0,
0,
0,
0,
3,
0,
0,
0,
0,
1,
0,
0,
0,
0,
0,
1,
0,
0,
0,
0,
0,
0,
0,
0,
0,
0,
0,
0,
#ENDOFDATA   :