File: NeXLSpectrum/Pyrite fragments/FeS_StdC_3_15kV10nA130kHz_153kHz_100s.msa
#FORMAT      : EMSA/MAS Spectral Data File
#VERSION     : 1.0
#TITLE       : Bruker Nano spectrum Acquisition
#DATE        : 23-AUG-2019
#TIME        : 10:13
#OWNER       : Bruker Nano
#NPOINTS     : 4096
#NCOLUMNS    : 1
#XUNITS      : eV
#YUNITS      : counts
#DATATYPE    : Y
#XPERCHAN    : 5.00257
#OFFSET      : -482.8305
#BEAMKV      : 15
#SIGNALTYPE  : EDS
#ELEVANGLE   : 40
#AZIMANGLE   : 45
#LIVETIME    : 100
#REALTIME    : 125.997
#PROBECUR    : 10
#TAUWIND     : 0
#TDEADLYR    : 0
#TACTLYR     : 0.045
#TALWIND     : 0.004
#CHOFFSET    : 0.0
#XLABEL      : Energy (eV)
#YLABEL      : Counts
#EDSDET      : SDUTW
##D2STDCMP   : FeS,(S:36.4748),(Fe:63.5252),4.74
##DET_HASH   : c6370f9e-cc72-7559-f57e-203d75c8942b
##CALIB_HASH : fcf71094-1a10-2882-685e-00197fff5925
##SAMPLE     : <BulkSample id="1">\n<mOrientation id="2">\n<double>0.0</double>\n<double>0.0</double>\n<double>-1.0</double>\n</mOrientation>\n</BulkSample>
#SPECTRUM    :
0,
0,
0,
0,
8,
31,
3257,
206307,
138,
1619,
1387,
6747,
978,
1471,
4062,
7208,
16594,
50210,
4830,
2767,
2834,
3082,
3465,
3640,
3881,
4122,
4285,
4499,
4722,
4563,
4471,
4741,
4960,
4528,
4522,
4692,
4597,
4609,
5524,
55530,
187817,
26476,
17157,
7230,
3116,
2976,
2919,
2785,
2822,
2743,
2732,
2729,
2592,
2584,
2569,
2603,
2421,
2400,
2427,
2314,
2406,
2193,
2223,
2063,
2086,
2004,
2023,
1943,
1868,
1983,
1867,
1806,
1764,
1582,
1588,
1593,
1611,
1487,
1599,
1553,
1456,
1550,
1405,
1416,
1385,
1384,
1321,
1282,
1361,
1340,
1202,
1184,
1239,
1247,
1234,
1247,
2303,
15156,
48925,
35572,
6506,
1314,
1056,
1084,
1038,
1090,
2101,
5645,
6699,
2676,
950,
747,
659,
761,
703,
714,
678,
683,
671,
661,
635,
606,
592,
637,
608,
593,
565,
602,
554,
559,
538,
525,
491,
472,
507,
473,
474,
488,
448,
407,
433,
412,
479,
436,
417,
349,
415,
351,
325,
346,
370,
413,
384,
338,
333,
347,
344,
332,
265,
283,
286,
285,
255,
244,
267,
237,
251,
231,
197,
207,
207,
190,
198,
195,
205,
210,
163,
175,
169,
186,
172,
154,
144,
162,
132,
132,
136,
127,
121,
115,
106,
99,
94,
104,
84,
98,
84,
74,
54,
57,
54,
66,
63,
58,
47,
45,
42,
41,
37,
37,
26,
30,
26,
17,
19,
20,
12,
2,
7,
7,
7,
3,
1,
2,
0,
0,
1,
0,
0,
0,
0,
0,
0,
0,
3,
2,
0,
0,
0,
0,
0,
0,
0,
0,
1,
0,
0,
0,
0,
0,
0,
0,
0,
0,
0,
0,
0,
0,
0,
0,
0,
1,
1,
0,
0,
1,
0,
1,
0,
2,
0,
0,
0,
0,
0,
0,
0,
0,
0,
0,
0,
0,
0,
0,
1,
0,
0,
0,
0,
0,
0,
0,
0,
0,
#ENDOFDATA   :