File: NeXLSpectrum/Pyrite fragments/Pyrite_1_J2_15kV10nA130kHz_28kHz_100s.msa
#FORMAT      : EMSA/MAS Spectral Data File
#VERSION     : 1.0
#TITLE       : Bruker Nano spectrum Acquisition
#DATE        : 23-AUG-2019
#TIME        : 00:37
#OWNER       : Bruker Nano
#NPOINTS     : 4096
#NCOLUMNS    : 1
#XUNITS      : eV
#YUNITS      : counts
#DATATYPE    : Y
#XPERCHAN    : 5.00257
#OFFSET      : -482.8305
#BEAMKV      : 15
#SIGNALTYPE  : EDS
#ELEVANGLE   : 40
#AZIMANGLE   : 45
#LIVETIME    : 100
#REALTIME    : 106.923
#PROBECUR    : 10
#TAUWIND     : 0
#TDEADLYR    : 0
#TACTLYR     : 0.045
#TALWIND     : 0.004
#CHOFFSET    : 0.0
#XLABEL      : Energy (eV)
#YLABEL      : Counts
#EDSDET      : SDUTW
##DET_HASH   : c6370f9e-cc72-7559-f57e-203d75c8942b
##CALIB_HASH : fcf71094-1a10-2882-685e-00197fff5925
##SAMPLE     : <BulkSample id="1">\n<mOrientation id="2">\n<double>0.0</double>\n<double>0.0</double>\n<double>-1.0</double>\n</mOrientation>\n</BulkSample>
#SPECTRUM    :
0,
0,
0,
0,
1,
2,
926,
64652,
12,
168,
215,
1752,
181,
186,
2781,
1136,
751,
3778,
438,
379,
407,
377,
406,
383,
409,
499,
494,
562,
634,
634,
566,
657,
859,
752,
763,
866,
984,
1002,
1383,
21508,
75413,
10190,
6143,
1796,
423,
413,
427,
441,
448,
444,
453,
473,
479,
534,
510,
526,
554,
568,
563,
562,
603,
620,
535,
594,
581,
547,
629,
563,
588,
637,
608,
605,
590,
587,
579,
604,
603,
605,
614,
645,
641,
578,
606,
611,
600,
592,
634,
580,
576,
590,
541,
580,
573,
573,
601,
631,
1019,
6738,
22195,
16380,
3077,
635,
587,
522,
585,
602,
1077,
2848,
3272,
1223,
382,
278,
303,
327,
331,
329,
309,
300,
307,
325,
322,
345,
296,
326,
293,
280,
276,
271,
269,
272,
263,
252,
268,
269,
275,
251,
271,
234,
253,
253,
248,
211,
247,
237,
219,
261,
226,
243,
247,
204,
228,
195,
214,
207,
217,
199,
206,
214,
178,
174,
177,
184,
193,
182,
150,
160,
165,
141,
170,
138,
136,
143,
116,
136,
121,
141,
151,
122,
124,
118,
108,
118,
115,
105,
85,
99,
95,
89,
84,
82,
70,
73,
57,
60,
69,
66,
60,
70,
47,
60,
52,
39,
43,
37,
37,
35,
34,
22,
28,
36,
29,
26,
27,
19,
18,
16,
12,
7,
7,
8,
5,
2,
0,
0,
0,
0,
0,
0,
1,
0,
0,
0,
0,
0,
0,
0,
0,
0,
0,
0,
0,
0,
0,
0,
0,
0,
0,
0,
0,
0,
0,
0,
0,
1,
1,
0,
0,
0,
1,
0,
0,
0,
0,
0,
0,
0,
0,
0,
0,
0,
0,
0,
1,
0,
0,
0,
0,
2,
0,
0,
0,
0,
0,
0,
0,
0,
0,
0,
0,
0,
0,
0,
0,
0,
#ENDOFDATA   :