File: NeXLSpectrum/Pyrite fragments/Pyrite_1_F1_15kV10nA130kHz_114kHz_100s.msa
#FORMAT      : EMSA/MAS Spectral Data File
#VERSION     : 1.0
#TITLE       : Bruker Nano spectrum Acquisition
#DATE        : 23-AUG-2019
#TIME        : 11:13
#OWNER       : Bruker Nano
#NPOINTS     : 4096
#NCOLUMNS    : 1
#XUNITS      : eV
#YUNITS      : counts
#DATATYPE    : Y
#XPERCHAN    : 5.00257
#OFFSET      : -482.8305
#BEAMKV      : 15
#SIGNALTYPE  : EDS
#ELEVANGLE   : 40
#AZIMANGLE   : 45
#LIVETIME    : 100
#REALTIME    : 127.211
#PROBECUR    : 10
#TAUWIND     : 0
#TDEADLYR    : 0
#TACTLYR     : 0.045
#TALWIND     : 0.004
#CHOFFSET    : 0.0
#XLABEL      : Energy (eV)
#YLABEL      : Counts
#EDSDET      : SDUTW
##DET_HASH   : c6370f9e-cc72-7559-f57e-203d75c8942b
##CALIB_HASH : fcf71094-1a10-2882-685e-00197fff5925
##SAMPLE     : <BulkSample id="1">\n<mOrientation id="2">\n<double>0.0</double>\n<double>0.0</double>\n<double>-1.0</double>\n</mOrientation>\n</BulkSample>
#SPECTRUM    :
0,
0,
0,
0,
7,
41,
3251,
206642,
174,
3483,
1724,
10784,
1152,
1497,
4918,
6048,
12191,
52460,
5095,
4061,
3367,
3475,
3675,
3858,
4004,
4209,
4359,
4356,
4434,
4277,
4061,
4190,
4334,
4148,
4088,
4232,
4423,
4312,
5324,
73439,
252896,
33757,
20591,
7848,
2614,
2381,
2256,
2297,
2235,
2217,
2201,
2101,
2098,
2002,
2023,
2017,
1939,
1900,
1820,
1791,
1728,
1693,
1657,
1721,
1647,
1629,
1574,
1521,
1531,
1551,
1480,
1387,
1382,
1246,
1282,
1274,
1350,
1273,
1232,
1243,
1200,
1164,
1131,
1117,
1055,
1121,
1027,
1017,
1008,
1016,
994,
964,
967,
980,
973,
974,
1556,
10078,
32376,
23548,
4340,
998,
859,
803,
805,
833,
1472,
3901,
4633,
1892,
745,
634,
638,
633,
648,
643,
546,
557,
559,
590,
551,
549,
536,
508,
526,
545,
482,
477,
446,
464,
426,
428,
428,
437,
494,
408,
418,
387,
377,
375,
371,
367,
358,
349,
332,
335,
319,
318,
312,
306,
329,
253,
309,
276,
305,
266,
259,
249,
248,
252,
232,
237,
239,
223,
207,
237,
228,
194,
198,
212,
170,
170,
179,
164,
165,
160,
152,
145,
131,
129,
155,
121,
124,
133,
129,
106,
94,
117,
105,
83,
97,
91,
101,
79,
89,
62,
69,
67,
61,
67,
68,
56,
50,
48,
44,
46,
35,
44,
45,
29,
32,
20,
30,
18,
18,
17,
23,
12,
6,
6,
7,
7,
0,
3,
0,
0,
2,
0,
0,
0,
0,
0,
0,
0,
0,
0,
0,
1,
0,
0,
0,
0,
0,
0,
0,
0,
0,
0,
0,
0,
1,
0,
3,
0,
0,
0,
0,
0,
0,
1,
0,
1,
0,
0,
1,
0,
0,
0,
0,
0,
0,
0,
0,
0,
0,
0,
0,
0,
0,
0,
0,
1,
1,
1,
0,
0,
0,
0,
0,
0,
0,
0,
0,
0,
#ENDOFDATA   :