File: NeXLSpectrum/Pyrite fragments/Pyrite_1_L1_15kV10nA130kHz_114kHz_100s.msa
#FORMAT      : EMSA/MAS Spectral Data File
#VERSION     : 1.0
#TITLE       : Bruker Nano spectrum Acquisition
#DATE        : 23-AUG-2019
#TIME        : 00:59
#OWNER       : Bruker Nano
#NPOINTS     : 4096
#NCOLUMNS    : 1
#XUNITS      : eV
#YUNITS      : counts
#DATATYPE    : Y
#XPERCHAN    : 5.00257
#OFFSET      : -482.8305
#BEAMKV      : 15
#SIGNALTYPE  : EDS
#ELEVANGLE   : 40
#AZIMANGLE   : 45
#LIVETIME    : 100
#REALTIME    : 127.143
#PROBECUR    : 10
#TAUWIND     : 0
#TDEADLYR    : 0
#TACTLYR     : 0.045
#TALWIND     : 0.004
#CHOFFSET    : 0.0
#XLABEL      : Energy (eV)
#YLABEL      : Counts
#EDSDET      : SDUTW
##DET_HASH   : c6370f9e-cc72-7559-f57e-203d75c8942b
##CALIB_HASH : fcf71094-1a10-2882-685e-00197fff5925
##SAMPLE     : <BulkSample id="1">\n<mOrientation id="2">\n<double>0.0</double>\n<double>0.0</double>\n<double>-1.0</double>\n</mOrientation>\n</BulkSample>
#SPECTRUM    :
0,
0,
0,
0,
8,
38,
3063,
206706,
177,
3556,
1495,
8237,
1074,
1480,
4649,
5411,
12386,
52628,
5190,
4244,
3242,
3454,
3695,
3833,
4047,
4257,
4209,
4404,
4575,
4212,
4149,
4204,
4428,
4143,
4178,
4183,
4381,
4162,
5431,
73277,
252479,
33852,
20589,
7774,
2556,
2319,
2326,
2218,
2274,
2213,
2177,
2074,
2056,
2047,
2008,
2104,
1911,
1889,
1858,
1817,
1843,
1742,
1767,
1727,
1665,
1625,
1551,
1524,
1499,
1562,
1466,
1395,
1325,
1225,
1253,
1268,
1316,
1255,
1295,
1269,
1217,
1225,
1154,
1144,
1131,
1080,
1098,
1033,
981,
1020,
986,
968,
938,
989,
885,
1016,
1643,
10126,
32653,
23984,
4381,
965,
853,
838,
796,
859,
1517,
3989,
4583,
1928,
756,
621,
653,
762,
762,
692,
602,
585,
552,
508,
553,
573,
562,
526,
527,
479,
475,
491,
459,
463,
438,
429,
433,
420,
423,
465,
421,
437,
424,
416,
352,
358,
359,
364,
351,
358,
314,
323,
333,
331,
294,
342,
284,
275,
263,
305,
270,
266,
238,
251,
244,
202,
224,
248,
236,
221,
206,
207,
218,
207,
197,
165,
172,
152,
171,
178,
154,
152,
169,
149,
146,
128,
122,
124,
109,
124,
96,
116,
116,
100,
93,
89,
89,
91,
74,
72,
65,
56,
74,
50,
48,
53,
47,
41,
34,
55,
35,
27,
30,
33,
31,
19,
20,
11,
15,
18,
17,
13,
8,
9,
5,
0,
2,
0,
0,
0,
0,
0,
0,
3,
2,
0,
0,
0,
0,
0,
0,
0,
0,
0,
0,
0,
0,
0,
0,
0,
0,
0,
0,
3,
0,
1,
1,
0,
2,
0,
0,
1,
0,
0,
0,
1,
0,
0,
0,
0,
0,
0,
0,
0,
0,
1,
0,
0,
0,
0,
0,
0,
0,
0,
0,
0,
0,
0,
0,
0,
0,
0,
0,
0,
1,
0,
0,
0,
#ENDOFDATA   :