File: NeXLSpectrum/Pyrite fragments/Pyrite_1_A1_15kV10nA130kHz_8kHz_100s.msa
#FORMAT      : EMSA/MAS Spectral Data File
#VERSION     : 1.0
#TITLE       : Bruker Nano spectrum Acquisition
#DATE        : 23-AUG-2019
#TIME        : 10:30
#OWNER       : Bruker Nano
#NPOINTS     : 4096
#NCOLUMNS    : 1
#XUNITS      : eV
#YUNITS      : counts
#DATATYPE    : Y
#XPERCHAN    : 5.00257
#OFFSET      : -482.8305
#BEAMKV      : 15
#SIGNALTYPE  : EDS
#ELEVANGLE   : 40
#AZIMANGLE   : 45
#LIVETIME    : 100
#REALTIME    : 101.269
#PROBECUR    : 10
#TAUWIND     : 0
#TDEADLYR    : 0
#TACTLYR     : 0.045
#TALWIND     : 0.004
#CHOFFSET    : 0.0
#XLABEL      : Energy (eV)
#YLABEL      : Counts
#EDSDET      : SDUTW
##DET_HASH   : c6370f9e-cc72-7559-f57e-203d75c8942b
##CALIB_HASH : fcf71094-1a10-2882-685e-00197fff5925
##SAMPLE     : <BulkSample id="1">\n<mOrientation id="2">\n<double>0.0</double>\n<double>0.0</double>\n<double>-1.0</double>\n</mOrientation>\n</BulkSample>
#SPECTRUM    :
0,
0,
0,
0,
0,
0,
171,
13901,
5,
130,
3098,
40018,
152,
104,
888,
382,
276,
1035,
262,
343,
240,
251,
287,
291,
275,
283,
269,
270,
258,
254,
236,
249,
258,
219,
227,
205,
213,
181,
173,
1144,
3593,
558,
373,
219,
155,
131,
111,
127,
143,
113,
131,
91,
107,
111,
106,
98,
90,
90,
92,
99,
120,
91,
83,
74,
73,
80,
71,
71,
78,
67,
65,
66,
55,
64,
57,
60,
47,
55,
56,
63,
40,
69,
52,
46,
51,
56,
57,
57,
34,
31,
40,
34,
45,
39,
34,
42,
51,
162,
525,
395,
95,
34,
37,
41,
30,
52,
41,
84,
107,
59,
28,
26,
20,
37,
32,
18,
31,
25,
21,
22,
20,
18,
30,
20,
23,
17,
18,
20,
15,
15,
22,
18,
15,
12,
14,
19,
18,
13,
8,
13,
14,
10,
13,
19,
12,
13,
15,
12,
10,
11,
14,
13,
12,
10,
9,
9,
5,
11,
10,
7,
9,
6,
6,
6,
11,
15,
5,
6,
5,
9,
3,
8,
8,
6,
8,
9,
11,
9,
6,
3,
8,
4,
9,
9,
8,
7,
9,
7,
6,
6,
8,
5,
5,
1,
4,
7,
11,
5,
4,
5,
5,
6,
8,
4,
4,
2,
4,
2,
4,
4,
4,
3,
1,
1,
3,
2,
1,
2,
3,
1,
1,
1,
1,
0,
0,
0,
0,
0,
0,
0,
0,
0,
0,
0,
0,
0,
0,
0,
0,
0,
0,
0,
0,
0,
0,
0,
0,
0,
0,
0,
0,
0,
0,
0,
0,
0,
0,
0,
0,
0,
0,
0,
0,
0,
0,
0,
0,
0,
0,
0,
0,
0,
0,
0,
0,
0,
0,
0,
0,
0,
0,
0,
0,
0,
0,
0,
0,
0,
0,
0,
0,
0,
0,
0,
#ENDOFDATA   :