File: NeXLSpectrum/Pyrite fragments/Pyrite_1_I3_15kV10nA130kHz_129kHz_100s.msa
#FORMAT      : EMSA/MAS Spectral Data File
#VERSION     : 1.0
#TITLE       : Bruker Nano spectrum Acquisition
#DATE        : 23-AUG-2019
#TIME        : 00:30
#OWNER       : Bruker Nano
#NPOINTS     : 4096
#NCOLUMNS    : 1
#XUNITS      : eV
#YUNITS      : counts
#DATATYPE    : Y
#XPERCHAN    : 5.00257
#OFFSET      : -482.8305
#BEAMKV      : 15
#SIGNALTYPE  : EDS
#ELEVANGLE   : 40
#AZIMANGLE   : 45
#LIVETIME    : 100
#REALTIME    : 131.601
#PROBECUR    : 10
#TAUWIND     : 0
#TDEADLYR    : 0
#TACTLYR     : 0.045
#TALWIND     : 0.004
#CHOFFSET    : 0.0
#XLABEL      : Energy (eV)
#YLABEL      : Counts
#EDSDET      : SDUTW
##DET_HASH   : c6370f9e-cc72-7559-f57e-203d75c8942b
##CALIB_HASH : fcf71094-1a10-2882-685e-00197fff5925
##SAMPLE     : <BulkSample id="1">\n<mOrientation id="2">\n<double>0.0</double>\n<double>0.0</double>\n<double>-1.0</double>\n</mOrientation>\n</BulkSample>
#SPECTRUM    :
0,
0,
0,
0,
11,
44,
4070,
274720,
242,
4089,
1094,
2553,
1160,
1674,
3758,
6711,
15156,
64921,
6266,
4129,
3906,
4185,
4560,
4880,
4883,
5231,
5161,
5284,
5392,
5168,
4887,
4969,
5110,
4993,
4814,
4845,
4973,
4817,
6158,
82773,
284103,
38153,
23054,
8932,
2902,
2760,
2677,
2585,
2568,
2642,
2471,
2463,
2404,
2302,
2315,
2196,
2210,
2210,
2125,
2085,
2008,
1938,
1976,
1843,
1824,
1799,
1727,
1733,
1648,
1677,
1591,
1584,
1502,
1359,
1362,
1391,
1434,
1371,
1413,
1362,
1272,
1340,
1297,
1295,
1226,
1147,
1211,
1197,
1076,
1154,
1075,
1046,
1050,
1061,
1049,
1133,
1790,
11093,
34851,
25384,
4734,
1034,
909,
937,
826,
926,
1593,
4224,
4906,
2062,
829,
700,
674,
767,
741,
636,
609,
578,
624,
583,
628,
559,
596,
581,
573,
529,
582,
519,
492,
513,
482,
462,
471,
441,
454,
424,
411,
419,
448,
401,
384,
397,
370,
385,
393,
369,
333,
359,
371,
330,
357,
306,
330,
325,
321,
302,
267,
281,
282,
264,
242,
265,
249,
247,
245,
203,
222,
209,
204,
197,
205,
197,
168,
167,
188,
182,
140,
170,
165,
149,
132,
130,
139,
114,
139,
133,
112,
103,
96,
93,
104,
85,
95,
96,
87,
74,
67,
66,
47,
69,
53,
45,
55,
39,
51,
43,
31,
29,
29,
40,
31,
16,
18,
20,
24,
21,
15,
13,
9,
7,
2,
0,
0,
0,
0,
1,
0,
0,
0,
2,
0,
3,
1,
0,
0,
0,
1,
0,
0,
0,
1,
0,
2,
0,
0,
0,
0,
0,
0,
0,
0,
3,
0,
1,
0,
1,
0,
0,
0,
2,
0,
0,
3,
0,
0,
0,
0,
0,
0,
0,
0,
1,
0,
0,
0,
0,
0,
0,
0,
0,
0,
0,
0,
0,
0,
0,
0,
0,
0,
0,
0,
0,
1,
0,
#ENDOFDATA   :