File: NeXLSpectrum/Pyrite fragments/Pyrite_1_D3_15kV10nA130kHz_116kHz_100s.msa
#FORMAT      : EMSA/MAS Spectral Data File
#VERSION     : 1.0
#TITLE       : Bruker Nano spectrum Acquisition
#DATE        : 23-AUG-2019
#TIME        : 11:00
#OWNER       : Bruker Nano
#NPOINTS     : 4096
#NCOLUMNS    : 1
#XUNITS      : eV
#YUNITS      : counts
#DATATYPE    : Y
#XPERCHAN    : 5.00257
#OFFSET      : -482.8305
#BEAMKV      : 15
#SIGNALTYPE  : EDS
#ELEVANGLE   : 40
#AZIMANGLE   : 45
#LIVETIME    : 100
#REALTIME    : 127.574
#PROBECUR    : 10
#TAUWIND     : 0
#TDEADLYR    : 0
#TACTLYR     : 0.045
#TALWIND     : 0.004
#CHOFFSET    : 0.0
#XLABEL      : Energy (eV)
#YLABEL      : Counts
#EDSDET      : SDUTW
##DET_HASH   : c6370f9e-cc72-7559-f57e-203d75c8942b
##CALIB_HASH : fcf71094-1a10-2882-685e-00197fff5925
##SAMPLE     : <BulkSample id="1">\n<mOrientation id="2">\n<double>0.0</double>\n<double>0.0</double>\n<double>-1.0</double>\n</mOrientation>\n</BulkSample>
#SPECTRUM    :
0,
0,
0,
0,
9,
44,
3216,
206551,
163,
3509,
1604,
9215,
1168,
1519,
4702,
5905,
12374,
53563,
5242,
3480,
3275,
3473,
3709,
3851,
4077,
4380,
4383,
4420,
4558,
4391,
4234,
4310,
4414,
4192,
4129,
4358,
4481,
4277,
5510,
74095,
256324,
34120,
21001,
7922,
2622,
2413,
2339,
2334,
2298,
2263,
2202,
2123,
2139,
2066,
2119,
1933,
1916,
1950,
1934,
1868,
1793,
1793,
1782,
1723,
1709,
1606,
1592,
1579,
1514,
1543,
1453,
1462,
1370,
1262,
1278,
1330,
1274,
1296,
1270,
1244,
1173,
1237,
1136,
1105,
1155,
1112,
1088,
1140,
981,
1040,
1053,
1062,
1030,
941,
938,
1003,
1571,
10385,
33193,
24017,
4511,
1051,
882,
781,
833,
882,
1492,
3893,
4700,
1919,
788,
647,
600,
645,
652,
603,
611,
562,
599,
547,
584,
555,
544,
533,
531,
509,
511,
490,
498,
432,
418,
424,
392,
374,
428,
412,
408,
396,
388,
417,
371,
371,
341,
358,
349,
338,
332,
313,
272,
304,
300,
310,
317,
289,
307,
290,
266,
262,
250,
253,
243,
245,
219,
209,
217,
194,
212,
240,
189,
206,
199,
159,
182,
167,
148,
159,
139,
161,
141,
150,
133,
133,
111,
109,
133,
109,
124,
100,
96,
92,
96,
91,
91,
92,
85,
74,
66,
68,
53,
64,
71,
46,
54,
61,
41,
39,
42,
40,
29,
33,
22,
26,
26,
26,
14,
12,
11,
14,
12,
9,
6,
1,
1,
0,
0,
0,
0,
0,
2,
0,
0,
0,
0,
0,
0,
0,
0,
2,
0,
0,
0,
0,
0,
0,
0,
1,
0,
0,
0,
0,
0,
0,
0,
1,
0,
0,
0,
0,
0,
0,
0,
0,
0,
0,
0,
0,
0,
0,
0,
0,
0,
0,
0,
0,
0,
0,
0,
0,
0,
0,
0,
0,
0,
1,
0,
0,
0,
0,
1,
0,
1,
1,
0,
0,
#ENDOFDATA   :