File: NeXLSpectrum/Pyrite fragments/Pyrite_1_B1_15kV10nA130kHz_133kHz_100s.msa
#FORMAT      : EMSA/MAS Spectral Data File
#VERSION     : 1.0
#TITLE       : Bruker Nano spectrum Acquisition
#DATE        : 23-AUG-2019
#TIME        : 10:37
#OWNER       : Bruker Nano
#NPOINTS     : 4096
#NCOLUMNS    : 1
#XUNITS      : eV
#YUNITS      : counts
#DATATYPE    : Y
#XPERCHAN    : 5.00257
#OFFSET      : -482.8305
#BEAMKV      : 15
#SIGNALTYPE  : EDS
#ELEVANGLE   : 40
#AZIMANGLE   : 45
#LIVETIME    : 100
#REALTIME    : 132.954
#PROBECUR    : 10
#TAUWIND     : 0
#TDEADLYR    : 0
#TACTLYR     : 0.045
#TALWIND     : 0.004
#CHOFFSET    : 0.0
#XLABEL      : Energy (eV)
#YLABEL      : Counts
#EDSDET      : SDUTW
##DET_HASH   : c6370f9e-cc72-7559-f57e-203d75c8942b
##CALIB_HASH : fcf71094-1a10-2882-685e-00197fff5925
##SAMPLE     : <BulkSample id="1">\n<mOrientation id="2">\n<double>0.0</double>\n<double>0.0</double>\n<double>-1.0</double>\n</mOrientation>\n</BulkSample>
#SPECTRUM    :
0,
0,
0,
0,
17,
61,
4215,
275095,
269,
4344,
1310,
2878,
1637,
2064,
7645,
7992,
16095,
68715,
6878,
4608,
4365,
4612,
4831,
5020,
5292,
5445,
5555,
5702,
5632,
5401,
5144,
5142,
5232,
5007,
4953,
4927,
5316,
4893,
6274,
84198,
288149,
38732,
23749,
9140,
3090,
2815,
2833,
2693,
2702,
2663,
2560,
2505,
2422,
2424,
2377,
2326,
2292,
2198,
2168,
2114,
2029,
2076,
2004,
1950,
1797,
1815,
1850,
1777,
1733,
1687,
1698,
1602,
1504,
1357,
1375,
1412,
1393,
1474,
1411,
1368,
1347,
1310,
1231,
1294,
1235,
1231,
1244,
1199,
1131,
1148,
1079,
1075,
1083,
1030,
1009,
1151,
1778,
11036,
35136,
25416,
4830,
1065,
921,
909,
875,
975,
1628,
4143,
4988,
2125,
852,
718,
668,
751,
745,
693,
602,
631,
643,
602,
602,
584,
614,
616,
587,
547,
550,
491,
481,
493,
462,
459,
444,
463,
447,
468,
457,
443,
391,
384,
395,
396,
392,
358,
422,
376,
393,
330,
350,
312,
324,
309,
294,
298,
282,
291,
275,
291,
296,
264,
285,
246,
241,
248,
188,
247,
211,
204,
201,
183,
179,
174,
177,
184,
160,
176,
154,
151,
147,
145,
122,
148,
131,
136,
125,
120,
112,
118,
117,
106,
98,
83,
115,
83,
87,
76,
84,
67,
60,
67,
57,
65,
58,
45,
54,
42,
36,
29,
32,
33,
21,
29,
24,
20,
18,
20,
8,
8,
16,
5,
9,
1,
0,
0,
0,
0,
0,
0,
0,
0,
0,
0,
0,
0,
4,
0,
1,
0,
0,
0,
0,
0,
0,
0,
0,
0,
0,
0,
0,
0,
0,
0,
0,
0,
0,
0,
0,
0,
0,
0,
0,
0,
0,
0,
0,
0,
0,
0,
0,
0,
0,
0,
0,
0,
0,
0,
0,
0,
0,
0,
0,
0,
0,
0,
0,
0,
0,
0,
1,
0,
1,
0,
0,
0,
#ENDOFDATA   :