File: NeXLSpectrum/Pyrite fragments/Pyrite_1_I1_15kV10nA130kHz_129kHz_100s.msa
#FORMAT      : EMSA/MAS Spectral Data File
#VERSION     : 1.0
#TITLE       : Bruker Nano spectrum Acquisition
#DATE        : 23-AUG-2019
#TIME        : 00:25
#OWNER       : Bruker Nano
#NPOINTS     : 4096
#NCOLUMNS    : 1
#XUNITS      : eV
#YUNITS      : counts
#DATATYPE    : Y
#XPERCHAN    : 5.00257
#OFFSET      : -482.8305
#BEAMKV      : 15
#SIGNALTYPE  : EDS
#ELEVANGLE   : 40
#AZIMANGLE   : 45
#LIVETIME    : 100
#REALTIME    : 131.648
#PROBECUR    : 10
#TAUWIND     : 0
#TDEADLYR    : 0
#TACTLYR     : 0.045
#TALWIND     : 0.004
#CHOFFSET    : 0.0
#XLABEL      : Energy (eV)
#YLABEL      : Counts
#EDSDET      : SDUTW
##DET_HASH   : c6370f9e-cc72-7559-f57e-203d75c8942b
##CALIB_HASH : fcf71094-1a10-2882-685e-00197fff5925
##SAMPLE     : <BulkSample id="1">\n<mOrientation id="2">\n<double>0.0</double>\n<double>0.0</double>\n<double>-1.0</double>\n</mOrientation>\n</BulkSample>
#SPECTRUM    :
0,
0,
0,
0,
15,
61,
4288,
275957,
228,
3970,
1072,
2726,
1143,
1640,
3828,
6518,
15201,
64593,
6291,
4162,
3844,
4199,
4536,
4694,
5072,
5162,
5285,
5237,
5269,
5153,
4859,
4897,
5166,
4909,
4805,
4763,
5067,
4874,
6168,
82766,
284736,
38293,
23410,
8926,
2958,
2740,
2699,
2736,
2511,
2590,
2480,
2401,
2478,
2262,
2337,
2201,
2194,
2177,
2108,
2056,
2024,
1997,
1914,
1824,
1883,
1876,
1737,
1732,
1744,
1586,
1640,
1578,
1492,
1360,
1368,
1410,
1399,
1405,
1370,
1312,
1372,
1329,
1228,
1266,
1274,
1201,
1211,
1146,
1093,
1124,
1091,
1077,
1055,
1092,
1077,
1133,
1742,
10890,
34780,
25588,
4838,
1104,
938,
867,
863,
902,
1598,
4215,
4960,
2116,
804,
669,
684,
702,
676,
655,
635,
568,
620,
624,
581,
596,
565,
591,
588,
557,
542,
529,
531,
512,
464,
457,
461,
441,
460,
400,
424,
434,
395,
413,
387,
400,
393,
393,
350,
395,
312,
330,
317,
327,
331,
313,
315,
294,
302,
259,
273,
285,
262,
284,
237,
270,
238,
244,
237,
256,
217,
216,
239,
218,
187,
183,
167,
172,
161,
179,
141,
160,
172,
148,
127,
136,
149,
131,
111,
125,
102,
110,
96,
107,
91,
92,
96,
88,
79,
81,
73,
67,
60,
76,
42,
58,
40,
58,
41,
44,
34,
28,
36,
27,
25,
24,
20,
29,
21,
23,
10,
15,
9,
4,
5,
4,
0,
0,
0,
0,
0,
0,
2,
0,
0,
2,
0,
0,
0,
1,
0,
0,
0,
0,
1,
0,
1,
0,
0,
0,
0,
0,
0,
0,
0,
0,
0,
0,
0,
1,
0,
0,
0,
0,
0,
0,
0,
0,
0,
1,
0,
0,
0,
0,
0,
0,
0,
0,
0,
0,
0,
0,
0,
0,
0,
0,
1,
0,
0,
1,
0,
0,
0,
0,
0,
0,
1,
0,
#ENDOFDATA   :