File: NeXLSpectrum/Pyrite fragments/Pyrite_1_G3_15kV10nA130kHz_129kHz_100s.msa
#FORMAT      : EMSA/MAS Spectral Data File
#VERSION     : 1.0
#TITLE       : Bruker Nano spectrum Acquisition
#DATE        : 23-AUG-2019
#TIME        : 00:08
#OWNER       : Bruker Nano
#NPOINTS     : 4096
#NCOLUMNS    : 1
#XUNITS      : eV
#YUNITS      : counts
#DATATYPE    : Y
#XPERCHAN    : 5.00257
#OFFSET      : -482.8305
#BEAMKV      : 15
#SIGNALTYPE  : EDS
#ELEVANGLE   : 40
#AZIMANGLE   : 45
#LIVETIME    : 100
#REALTIME    : 131.52
#PROBECUR    : 10
#TAUWIND     : 0
#TDEADLYR    : 0
#TACTLYR     : 0.045
#TALWIND     : 0.004
#CHOFFSET    : 0.0
#XLABEL      : Energy (eV)
#YLABEL      : Counts
#EDSDET      : SDUTW
##DET_HASH   : c6370f9e-cc72-7559-f57e-203d75c8942b
##CALIB_HASH : fcf71094-1a10-2882-685e-00197fff5925
##SAMPLE     : <BulkSample id="1">\n<mOrientation id="2">\n<double>0.0</double>\n<double>0.0</double>\n<double>-1.0</double>\n</mOrientation>\n</BulkSample>
#SPECTRUM    :
0,
0,
0,
0,
13,
52,
4298,
276071,
231,
4018,
1039,
2561,
1135,
1596,
3589,
6872,
15512,
65015,
6304,
4196,
3905,
4187,
4421,
4792,
4944,
5044,
5173,
5309,
5369,
5070,
4941,
4939,
5148,
4935,
4882,
4800,
4965,
4808,
6086,
82396,
283041,
37878,
23304,
8964,
2942,
2709,
2708,
2654,
2618,
2585,
2474,
2429,
2473,
2335,
2318,
2209,
2172,
2151,
2152,
2023,
2002,
1939,
1949,
1870,
1844,
1809,
1802,
1678,
1657,
1586,
1650,
1532,
1475,
1325,
1369,
1386,
1391,
1456,
1408,
1305,
1361,
1277,
1281,
1272,
1290,
1134,
1184,
1164,
1112,
1123,
1131,
1091,
1033,
1038,
1028,
1134,
1731,
10802,
34438,
25544,
4651,
1113,
908,
892,
971,
935,
1631,
4230,
4921,
2063,
829,
680,
691,
750,
706,
611,
639,
630,
639,
586,
565,
557,
558,
549,
546,
536,
549,
502,
514,
490,
472,
458,
451,
419,
451,
463,
438,
452,
405,
417,
419,
395,
353,
344,
337,
337,
363,
341,
316,
320,
304,
296,
304,
323,
301,
298,
303,
281,
274,
286,
276,
232,
254,
235,
232,
215,
242,
232,
212,
201,
197,
174,
206,
139,
176,
172,
159,
136,
154,
161,
144,
138,
126,
143,
123,
111,
112,
102,
107,
107,
102,
98,
105,
87,
89,
81,
81,
68,
68,
55,
70,
59,
54,
44,
44,
45,
40,
41,
31,
43,
26,
22,
22,
21,
20,
22,
14,
11,
17,
6,
4,
1,
0,
3,
0,
0,
0,
1,
0,
0,
1,
0,
0,
1,
0,
0,
0,
0,
1,
0,
0,
0,
2,
0,
0,
0,
0,
0,
0,
0,
0,
1,
1,
0,
0,
0,
0,
0,
2,
0,
1,
0,
0,
0,
1,
0,
0,
0,
0,
0,
0,
0,
0,
0,
0,
0,
0,
0,
0,
0,
1,
0,
0,
1,
1,
0,
1,
0,
0,
1,
0,
0,
0,
0,
#ENDOFDATA   :