File: NeXLSpectrum/Pyrite fragments/Pyrite_1_H1_15kV10nA130kHz_39kHz_100s.msa
#FORMAT      : EMSA/MAS Spectral Data File
#VERSION     : 1.0
#TITLE       : Bruker Nano spectrum Acquisition
#DATE        : 23-AUG-2019
#TIME        : 00:12
#OWNER       : Bruker Nano
#NPOINTS     : 4096
#NCOLUMNS    : 1
#XUNITS      : eV
#YUNITS      : counts
#DATATYPE    : Y
#XPERCHAN    : 5.00257
#OFFSET      : -482.8305
#BEAMKV      : 15
#SIGNALTYPE  : EDS
#ELEVANGLE   : 40
#AZIMANGLE   : 45
#LIVETIME    : 100
#REALTIME    : 107.765
#PROBECUR    : 10
#TAUWIND     : 0
#TDEADLYR    : 0
#TACTLYR     : 0.045
#TALWIND     : 0.004
#CHOFFSET    : 0.0
#XLABEL      : Energy (eV)
#YLABEL      : Counts
#EDSDET      : SDUTW
##DET_HASH   : c6370f9e-cc72-7559-f57e-203d75c8942b
##CALIB_HASH : fcf71094-1a10-2882-685e-00197fff5925
##SAMPLE     : <BulkSample id="1">\n<mOrientation id="2">\n<double>0.0</double>\n<double>0.0</double>\n<double>-1.0</double>\n</mOrientation>\n</BulkSample>
#SPECTRUM    :
0,
0,
0,
0,
2,
3,
997,
69580,
13,
267,
301,
2431,
255,
250,
2360,
1128,
1082,
4569,
505,
417,
411,
409,
433,
424,
526,
581,
596,
643,
701,
636,
677,
718,
817,
820,
855,
930,
1055,
1040,
1410,
22151,
76746,
10100,
6287,
1992,
440,
443,
443,
483,
476,
495,
525,
505,
526,
555,
552,
577,
627,
614,
591,
620,
601,
648,
592,
607,
654,
692,
640,
702,
654,
674,
677,
688,
714,
653,
671,
680,
681,
719,
664,
681,
695,
732,
683,
698,
705,
709,
684,
665,
659,
681,
678,
630,
674,
681,
739,
714,
1207,
7778,
25319,
18404,
3442,
761,
619,
672,
664,
729,
1197,
3236,
3735,
1387,
429,
322,
362,
351,
340,
356,
356,
376,
342,
326,
368,
378,
373,
336,
368,
318,
320,
332,
341,
314,
316,
322,
317,
313,
316,
304,
299,
307,
296,
294,
304,
315,
262,
282,
278,
278,
252,
304,
230,
267,
283,
287,
231,
238,
243,
226,
209,
189,
218,
213,
206,
195,
222,
200,
203,
198,
200,
171,
160,
185,
158,
162,
163,
178,
145,
147,
153,
159,
128,
125,
112,
105,
122,
114,
120,
106,
105,
112,
96,
93,
87,
80,
86,
77,
72,
72,
67,
64,
60,
60,
47,
62,
55,
50,
37,
42,
31,
33,
34,
34,
26,
26,
31,
30,
13,
8,
17,
12,
9,
8,
7,
4,
3,
0,
0,
0,
0,
1,
0,
0,
1,
0,
0,
0,
0,
0,
0,
0,
0,
0,
0,
0,
1,
0,
0,
0,
1,
0,
0,
1,
0,
0,
0,
0,
0,
0,
0,
0,
0,
0,
0,
0,
0,
0,
0,
0,
1,
0,
0,
0,
1,
0,
2,
0,
1,
0,
0,
0,
0,
0,
1,
1,
0,
0,
1,
0,
1,
0,
0,
0,
0,
0,
0,
0,
#ENDOFDATA   :