File: NeXLSpectrum/Pyrite fragments/Pyrite_1_K1_15kV10nA130kHz_2kHz_100s.msa
#FORMAT      : EMSA/MAS Spectral Data File
#VERSION     : 1.0
#TITLE       : Bruker Nano spectrum Acquisition
#DATE        : 23-AUG-2019
#TIME        : 00:43
#OWNER       : Bruker Nano
#NPOINTS     : 4096
#NCOLUMNS    : 1
#XUNITS      : eV
#YUNITS      : counts
#DATATYPE    : Y
#XPERCHAN    : 5.00257
#OFFSET      : -482.8305
#BEAMKV      : 15
#SIGNALTYPE  : EDS
#ELEVANGLE   : 40
#AZIMANGLE   : 45
#LIVETIME    : 99.999
#REALTIME    : 100.063
#PROBECUR    : 10
#TAUWIND     : 0
#TDEADLYR    : 0
#TACTLYR     : 0.045
#TALWIND     : 0.004
#CHOFFSET    : 0.0
#XLABEL      : Energy (eV)
#YLABEL      : Counts
#EDSDET      : SDUTW
##DET_HASH   : c6370f9e-cc72-7559-f57e-203d75c8942b
##CALIB_HASH : fcf71094-1a10-2882-685e-00197fff5925
##SAMPLE     : <BulkSample id="1">\n<mOrientation id="2">\n<double>0.0</double>\n<double>0.0</double>\n<double>-1.0</double>\n</mOrientation>\n</BulkSample>
#SPECTRUM    :
0,
0,
0,
0,
0,
0,
97,
8402,
0,
84,
193,
2157,
44,
40,
307,
213,
191,
916,
114,
139,
100,
92,
94,
78,
107,
102,
105,
78,
98,
76,
84,
79,
92,
69,
81,
78,
82,
60,
77,
1008,
3457,
448,
295,
112,
46,
59,
41,
48,
42,
39,
30,
31,
41,
39,
52,
27,
39,
32,
27,
48,
57,
30,
34,
23,
26,
26,
25,
22,
25,
21,
16,
23,
30,
16,
18,
28,
14,
26,
21,
18,
20,
16,
13,
13,
22,
12,
16,
19,
21,
11,
21,
19,
12,
9,
17,
15,
31,
187,
548,
388,
84,
29,
24,
11,
11,
12,
26,
97,
112,
33,
10,
11,
6,
15,
11,
10,
6,
9,
4,
4,
7,
9,
6,
15,
8,
6,
10,
3,
19,
9,
3,
5,
8,
9,
10,
10,
5,
11,
8,
4,
8,
5,
7,
7,
5,
9,
1,
4,
5,
3,
8,
8,
4,
9,
5,
5,
6,
9,
7,
3,
5,
3,
8,
6,
5,
7,
3,
9,
12,
6,
10,
4,
9,
12,
11,
8,
6,
6,
13,
8,
7,
7,
10,
13,
7,
5,
8,
7,
9,
6,
4,
6,
8,
3,
8,
6,
5,
5,
9,
5,
7,
7,
9,
5,
6,
6,
4,
4,
5,
8,
6,
4,
6,
4,
5,
2,
1,
2,
2,
2,
0,
1,
0,
1,
0,
0,
0,
0,
0,
0,
0,
0,
0,
0,
0,
0,
0,
0,
0,
0,
0,
0,
0,
0,
0,
0,
0,
0,
0,
0,
0,
0,
0,
0,
0,
0,
0,
0,
0,
0,
0,
0,
0,
0,
0,
0,
0,
0,
0,
0,
0,
0,
0,
0,
0,
0,
0,
0,
0,
0,
0,
0,
0,
0,
0,
0,
0,
0,
0,
0,
0,
0,
0,
0,
#ENDOFDATA   :