File: NeXLSpectrum/Pyrite fragments/Pyrite_1_I2_15kV10nA130kHz_129kHz_100s.msa
#FORMAT      : EMSA/MAS Spectral Data File
#VERSION     : 1.0
#TITLE       : Bruker Nano spectrum Acquisition
#DATE        : 23-AUG-2019
#TIME        : 00:28
#OWNER       : Bruker Nano
#NPOINTS     : 4096
#NCOLUMNS    : 1
#XUNITS      : eV
#YUNITS      : counts
#DATATYPE    : Y
#XPERCHAN    : 5.00257
#OFFSET      : -482.8305
#BEAMKV      : 15
#SIGNALTYPE  : EDS
#ELEVANGLE   : 40
#AZIMANGLE   : 45
#LIVETIME    : 100
#REALTIME    : 131.551
#PROBECUR    : 10
#TAUWIND     : 0
#TDEADLYR    : 0
#TACTLYR     : 0.045
#TALWIND     : 0.004
#CHOFFSET    : 0.0
#XLABEL      : Energy (eV)
#YLABEL      : Counts
#EDSDET      : SDUTW
##DET_HASH   : c6370f9e-cc72-7559-f57e-203d75c8942b
##CALIB_HASH : fcf71094-1a10-2882-685e-00197fff5925
##SAMPLE     : <BulkSample id="1">\n<mOrientation id="2">\n<double>0.0</double>\n<double>0.0</double>\n<double>-1.0</double>\n</mOrientation>\n</BulkSample>
#SPECTRUM    :
0,
0,
0,
0,
17,
48,
4199,
276020,
262,
4078,
1114,
2577,
1151,
1629,
3617,
6638,
15454,
65132,
6236,
4129,
3936,
4186,
4532,
4727,
4947,
5153,
5288,
5206,
5320,
5080,
4865,
5133,
5184,
4864,
4843,
4910,
5043,
4892,
6171,
82524,
283817,
38199,
23200,
8865,
2997,
2616,
2640,
2643,
2627,
2617,
2439,
2411,
2403,
2404,
2339,
2176,
2294,
2121,
2073,
2013,
2022,
1997,
1917,
1978,
1846,
1803,
1773,
1707,
1694,
1714,
1567,
1557,
1498,
1367,
1417,
1405,
1404,
1372,
1390,
1334,
1323,
1284,
1286,
1251,
1265,
1255,
1191,
1213,
1123,
1092,
1142,
1008,
1064,
1060,
1112,
1042,
1910,
11193,
34839,
25527,
4798,
1080,
861,
876,
873,
936,
1582,
4277,
5023,
2081,
851,
688,
699,
713,
706,
648,
617,
679,
611,
619,
579,
567,
586,
566,
613,
545,
539,
554,
531,
493,
470,
449,
463,
438,
432,
462,
500,
421,
406,
391,
386,
392,
376,
361,
390,
355,
374,
346,
336,
359,
363,
289,
315,
288,
294,
284,
285,
277,
277,
257,
276,
263,
253,
216,
238,
238,
213,
210,
187,
187,
226,
160,
184,
165,
167,
180,
155,
166,
144,
158,
129,
142,
133,
142,
130,
119,
103,
111,
110,
94,
96,
96,
101,
75,
69,
80,
86,
67,
74,
65,
48,
54,
54,
41,
45,
36,
40,
31,
39,
27,
22,
25,
13,
15,
12,
13,
11,
16,
8,
8,
3,
1,
0,
0,
0,
0,
0,
0,
2,
0,
0,
0,
0,
0,
0,
0,
0,
0,
2,
1,
0,
0,
0,
0,
0,
0,
1,
0,
0,
0,
0,
0,
0,
0,
1,
0,
0,
0,
1,
0,
0,
2,
0,
0,
0,
0,
0,
0,
1,
0,
0,
0,
1,
0,
0,
0,
0,
0,
0,
2,
0,
0,
0,
0,
0,
1,
0,
0,
0,
0,
0,
0,
1,
0,
#ENDOFDATA   :