File: NeXLSpectrum/Pyrite fragments/Pyrite_1_K2_15kV10nA130kHz_2kHz_100s.msa
#FORMAT      : EMSA/MAS Spectral Data File
#VERSION     : 1.0
#TITLE       : Bruker Nano spectrum Acquisition
#DATE        : 23-AUG-2019
#TIME        : 00:45
#OWNER       : Bruker Nano
#NPOINTS     : 4096
#NCOLUMNS    : 1
#XUNITS      : eV
#YUNITS      : counts
#DATATYPE    : Y
#XPERCHAN    : 5.00257
#OFFSET      : -482.8305
#BEAMKV      : 15
#SIGNALTYPE  : EDS
#ELEVANGLE   : 40
#AZIMANGLE   : 45
#LIVETIME    : 99.999
#REALTIME    : 100.111
#PROBECUR    : 10
#TAUWIND     : 0
#TDEADLYR    : 0
#TACTLYR     : 0.045
#TALWIND     : 0.004
#CHOFFSET    : 0.0
#XLABEL      : Energy (eV)
#YLABEL      : Counts
#EDSDET      : SDUTW
##DET_HASH   : c6370f9e-cc72-7559-f57e-203d75c8942b
##CALIB_HASH : fcf71094-1a10-2882-685e-00197fff5925
##SAMPLE     : <BulkSample id="1">\n<mOrientation id="2">\n<double>0.0</double>\n<double>0.0</double>\n<double>-1.0</double>\n</mOrientation>\n</BulkSample>
#SPECTRUM    :
0,
0,
0,
0,
0,
0,
105,
8351,
0,
96,
217,
2545,
54,
62,
378,
212,
250,
1062,
114,
156,
106,
104,
97,
86,
85,
98,
82,
85,
101,
91,
75,
97,
117,
84,
96,
83,
99,
87,
94,
1085,
3847,
461,
344,
114,
60,
42,
45,
52,
40,
37,
41,
57,
33,
32,
33,
39,
40,
44,
39,
48,
44,
37,
35,
37,
33,
35,
34,
28,
29,
24,
32,
36,
30,
31,
28,
22,
22,
25,
18,
20,
19,
24,
22,
14,
19,
23,
26,
24,
30,
27,
26,
11,
32,
18,
22,
27,
40,
245,
902,
616,
110,
21,
33,
25,
25,
27,
55,
148,
154,
57,
10,
6,
11,
20,
10,
10,
12,
11,
8,
7,
13,
13,
9,
13,
9,
9,
8,
13,
6,
6,
15,
12,
9,
10,
9,
13,
6,
4,
9,
8,
11,
6,
13,
9,
12,
11,
12,
12,
28,
14,
9,
8,
12,
11,
16,
12,
13,
20,
16,
10,
9,
6,
14,
9,
18,
10,
9,
12,
10,
11,
16,
11,
15,
11,
9,
12,
9,
8,
14,
8,
12,
10,
11,
15,
9,
10,
12,
15,
15,
7,
10,
13,
11,
11,
5,
12,
10,
8,
6,
7,
9,
10,
7,
5,
12,
1,
8,
4,
9,
4,
8,
4,
6,
6,
2,
2,
3,
5,
6,
1,
1,
2,
0,
0,
0,
0,
0,
0,
0,
0,
0,
0,
0,
0,
0,
0,
0,
0,
0,
0,
0,
0,
0,
0,
0,
0,
0,
0,
0,
0,
0,
0,
0,
0,
0,
0,
0,
0,
0,
0,
0,
0,
0,
0,
0,
0,
0,
0,
0,
0,
0,
0,
0,
0,
0,
0,
0,
0,
0,
0,
0,
0,
0,
0,
0,
0,
0,
0,
0,
0,
0,
0,
0,
0,
#ENDOFDATA   :