File: NeXLSpectrum/Pyrite fragments/Pyrite_1_E3_15kV10nA130kHz_95kHz_100s.msa
#FORMAT      : EMSA/MAS Spectral Data File
#VERSION     : 1.0
#TITLE       : Bruker Nano spectrum Acquisition
#DATE        : 23-AUG-2019
#TIME        : 11:11
#OWNER       : Bruker Nano
#NPOINTS     : 4096
#NCOLUMNS    : 1
#XUNITS      : eV
#YUNITS      : counts
#DATATYPE    : Y
#XPERCHAN    : 5.00257
#OFFSET      : -482.8305
#BEAMKV      : 15
#SIGNALTYPE  : EDS
#ELEVANGLE   : 40
#AZIMANGLE   : 45
#LIVETIME    : 100
#REALTIME    : 121.782
#PROBECUR    : 10
#TAUWIND     : 0
#TDEADLYR    : 0
#TACTLYR     : 0.045
#TALWIND     : 0.004
#CHOFFSET    : 0.0
#XLABEL      : Energy (eV)
#YLABEL      : Counts
#EDSDET      : SDUTW
##DET_HASH   : c6370f9e-cc72-7559-f57e-203d75c8942b
##CALIB_HASH : fcf71094-1a10-2882-685e-00197fff5925
##SAMPLE     : <BulkSample id="1">\n<mOrientation id="2">\n<double>0.0</double>\n<double>0.0</double>\n<double>-1.0</double>\n</mOrientation>\n</BulkSample>
#SPECTRUM    :
0,
0,
0,
0,
4,
22,
2457,
165269,
86,
1424,
1212,
8902,
987,
1078,
7114,
4292,
6090,
26704,
2593,
1797,
1815,
1929,
2137,
2389,
2476,
2728,
2720,
2933,
3157,
3073,
3025,
3139,
3400,
3235,
3235,
3390,
3563,
3520,
4552,
64014,
220089,
29656,
17795,
6441,
2034,
1825,
1788,
1837,
1807,
1877,
1780,
1805,
1819,
1707,
1734,
1777,
1727,
1660,
1632,
1686,
1639,
1572,
1528,
1585,
1590,
1580,
1477,
1442,
1460,
1421,
1391,
1339,
1262,
1191,
1163,
1229,
1228,
1216,
1190,
1205,
1163,
1142,
1162,
1131,
1050,
1057,
1101,
1063,
994,
1020,
990,
1039,
991,
979,
949,
959,
1518,
10107,
31807,
23485,
4375,
978,
789,
831,
841,
895,
1459,
3917,
4476,
1849,
767,
618,
592,
621,
602,
554,
593,
547,
553,
525,
523,
542,
511,
524,
475,
508,
441,
469,
488,
446,
408,
417,
423,
407,
424,
407,
379,
374,
393,
362,
372,
350,
336,
349,
343,
326,
339,
328,
341,
305,
332,
308,
280,
278,
305,
274,
275,
242,
246,
253,
232,
210,
240,
213,
244,
213,
224,
209,
205,
201,
189,
174,
172,
181,
170,
186,
141,
131,
122,
139,
124,
130,
134,
132,
122,
119,
117,
111,
88,
86,
87,
96,
82,
78,
78,
75,
76,
70,
59,
68,
63,
64,
51,
41,
48,
29,
45,
33,
48,
31,
27,
26,
20,
29,
24,
9,
9,
13,
12,
8,
0,
0,
0,
0,
1,
0,
0,
0,
0,
0,
0,
0,
0,
0,
0,
1,
0,
0,
0,
0,
0,
0,
0,
0,
0,
0,
0,
0,
0,
0,
1,
0,
0,
0,
0,
0,
0,
0,
0,
1,
0,
0,
0,
0,
0,
1,
0,
0,
0,
0,
0,
0,
0,
0,
0,
0,
0,
0,
0,
1,
0,
0,
0,
0,
1,
0,
0,
0,
0,
0,
1,
1,
0,
0,
#ENDOFDATA   :