File: NeXLSpectrum/Pyrite fragments/Pyrite_1_C3_15kV10nA130kHz_86kHz_100s.msa
#FORMAT      : EMSA/MAS Spectral Data File
#VERSION     : 1.0
#TITLE       : Bruker Nano spectrum Acquisition
#DATE        : 23-AUG-2019
#TIME        : 10:51
#OWNER       : Bruker Nano
#NPOINTS     : 4096
#NCOLUMNS    : 1
#XUNITS      : eV
#YUNITS      : counts
#DATATYPE    : Y
#XPERCHAN    : 5.00257
#OFFSET      : -482.8305
#BEAMKV      : 15
#SIGNALTYPE  : EDS
#ELEVANGLE   : 40
#AZIMANGLE   : 45
#LIVETIME    : 100
#REALTIME    : 119.117
#PROBECUR    : 10
#TAUWIND     : 0
#TDEADLYR    : 0
#TACTLYR     : 0.045
#TALWIND     : 0.004
#CHOFFSET    : 0.0
#XLABEL      : Energy (eV)
#YLABEL      : Counts
#EDSDET      : SDUTW
##DET_HASH   : c6370f9e-cc72-7559-f57e-203d75c8942b
##CALIB_HASH : fcf71094-1a10-2882-685e-00197fff5925
##SAMPLE     : <BulkSample id="1">\n<mOrientation id="2">\n<double>0.0</double>\n<double>0.0</double>\n<double>-1.0</double>\n</mOrientation>\n</BulkSample>
#SPECTRUM    :
0,
0,
0,
0,
2,
20,
2450,
165995,
69,
873,
684,
4170,
480,
627,
4040,
2803,
4381,
18591,
1718,
1251,
1284,
1399,
1567,
1581,
1838,
2059,
2000,
2161,
2449,
2412,
2388,
2524,
2676,
2620,
2868,
3002,
3046,
3094,
4099,
58314,
202619,
26891,
16417,
5590,
1567,
1435,
1479,
1473,
1512,
1467,
1506,
1567,
1510,
1544,
1494,
1577,
1513,
1590,
1514,
1546,
1518,
1419,
1443,
1441,
1437,
1379,
1393,
1399,
1383,
1358,
1350,
1310,
1297,
1165,
1212,
1215,
1233,
1210,
1168,
1199,
1181,
1147,
1154,
1106,
1155,
1091,
1086,
1048,
985,
1016,
949,
955,
945,
992,
905,
997,
1548,
10151,
32499,
23678,
4328,
1020,
829,
843,
840,
927,
1464,
3970,
4655,
1920,
755,
620,
595,
633,
555,
599,
527,
558,
523,
555,
540,
534,
527,
540,
475,
464,
466,
473,
466,
440,
444,
428,
391,
403,
430,
386,
386,
370,
393,
390,
384,
351,
371,
354,
346,
327,
326,
328,
309,
323,
270,
303,
253,
284,
284,
278,
272,
268,
268,
267,
216,
241,
233,
256,
218,
237,
184,
237,
179,
169,
207,
175,
167,
165,
160,
147,
179,
158,
155,
164,
145,
127,
106,
141,
127,
105,
102,
101,
87,
88,
92,
86,
86,
95,
85,
71,
67,
63,
69,
68,
52,
52,
53,
47,
36,
31,
46,
28,
43,
26,
38,
32,
27,
20,
18,
16,
9,
16,
4,
8,
11,
1,
0,
0,
0,
0,
0,
0,
0,
0,
1,
2,
0,
0,
0,
0,
0,
0,
1,
0,
0,
0,
0,
0,
0,
0,
0,
0,
0,
1,
0,
0,
0,
0,
0,
0,
0,
0,
1,
0,
0,
0,
0,
0,
0,
0,
0,
0,
0,
0,
0,
0,
0,
0,
0,
0,
0,
0,
0,
0,
0,
1,
0,
0,
0,
0,
1,
0,
0,
1,
0,
0,
1,
0,
#ENDOFDATA   :