File: NeXLSpectrum/Pyrite fragments/Pyrite_1_A3_15kV10nA130kHz_8kHz_100s.msa
#FORMAT      : EMSA/MAS Spectral Data File
#VERSION     : 1.0
#TITLE       : Bruker Nano spectrum Acquisition
#DATE        : 23-AUG-2019
#TIME        : 10:35
#OWNER       : Bruker Nano
#NPOINTS     : 4096
#NCOLUMNS    : 1
#XUNITS      : eV
#YUNITS      : counts
#DATATYPE    : Y
#XPERCHAN    : 5.00257
#OFFSET      : -482.8305
#BEAMKV      : 15
#SIGNALTYPE  : EDS
#ELEVANGLE   : 40
#AZIMANGLE   : 45
#LIVETIME    : 99.999
#REALTIME    : 101.247
#PROBECUR    : 10
#TAUWIND     : 0
#TDEADLYR    : 0
#TACTLYR     : 0.045
#TALWIND     : 0.004
#CHOFFSET    : 0.0
#XLABEL      : Energy (eV)
#YLABEL      : Counts
#EDSDET      : SDUTW
##DET_HASH   : c6370f9e-cc72-7559-f57e-203d75c8942b
##CALIB_HASH : fcf71094-1a10-2882-685e-00197fff5925
##SAMPLE     : <BulkSample id="1">\n<mOrientation id="2">\n<double>0.0</double>\n<double>0.0</double>\n<double>-1.0</double>\n</mOrientation>\n</BulkSample>
#SPECTRUM    :
0,
0,
0,
0,
0,
0,
164,
13670,
3,
157,
2825,
36837,
161,
103,
939,
370,
289,
1105,
274,
328,
247,
271,
268,
278,
257,
279,
261,
264,
282,
216,
220,
236,
237,
206,
188,
200,
196,
195,
221,
1246,
3873,
570,
430,
233,
142,
134,
125,
122,
123,
133,
94,
115,
90,
92,
107,
95,
102,
98,
92,
113,
108,
98,
81,
87,
79,
72,
75,
62,
68,
61,
60,
78,
66,
68,
55,
74,
47,
65,
58,
50,
56,
37,
41,
44,
48,
47,
45,
49,
46,
51,
37,
29,
36,
53,
51,
49,
76,
198,
503,
396,
97,
34,
30,
33,
33,
42,
44,
89,
103,
40,
23,
22,
28,
24,
36,
36,
19,
15,
14,
19,
15,
15,
31,
27,
19,
15,
20,
14,
14,
12,
16,
19,
16,
11,
15,
12,
15,
23,
7,
18,
10,
12,
15,
14,
8,
8,
11,
14,
8,
12,
13,
8,
11,
5,
7,
10,
10,
7,
5,
6,
6,
6,
8,
6,
7,
5,
3,
5,
5,
6,
9,
7,
6,
4,
3,
3,
4,
8,
5,
2,
6,
4,
3,
9,
2,
3,
4,
4,
3,
4,
0,
3,
5,
5,
3,
0,
4,
7,
2,
0,
3,
0,
2,
2,
2,
1,
4,
1,
0,
2,
1,
2,
0,
3,
0,
1,
1,
1,
0,
0,
0,
0,
0,
0,
0,
0,
0,
0,
0,
0,
0,
0,
0,
0,
0,
0,
0,
0,
0,
0,
0,
0,
0,
0,
0,
0,
0,
0,
0,
0,
0,
0,
0,
0,
0,
0,
0,
0,
0,
0,
0,
0,
0,
0,
0,
0,
0,
0,
0,
0,
0,
0,
0,
0,
0,
0,
0,
0,
0,
0,
0,
0,
0,
0,
0,
0,
0,
0,
0,
0,
0,
0,
0,
0,
#ENDOFDATA   :