File: NeXLSpectrum/Pyrite fragments/Pyrite_1_B2_15kV10nA130kHz_133kHz_100s.msa
#FORMAT      : EMSA/MAS Spectral Data File
#VERSION     : 1.0
#TITLE       : Bruker Nano spectrum Acquisition
#DATE        : 23-AUG-2019
#TIME        : 10:40
#OWNER       : Bruker Nano
#NPOINTS     : 4096
#NCOLUMNS    : 1
#XUNITS      : eV
#YUNITS      : counts
#DATATYPE    : Y
#XPERCHAN    : 5.00257
#OFFSET      : -482.8305
#BEAMKV      : 15
#SIGNALTYPE  : EDS
#ELEVANGLE   : 40
#AZIMANGLE   : 45
#LIVETIME    : 100
#REALTIME    : 133.183
#PROBECUR    : 10
#TAUWIND     : 0
#TDEADLYR    : 0
#TACTLYR     : 0.045
#TALWIND     : 0.004
#CHOFFSET    : 0.0
#XLABEL      : Energy (eV)
#YLABEL      : Counts
#EDSDET      : SDUTW
##DET_HASH   : c6370f9e-cc72-7559-f57e-203d75c8942b
##CALIB_HASH : fcf71094-1a10-2882-685e-00197fff5925
##SAMPLE     : <BulkSample id="1">\n<mOrientation id="2">\n<double>0.0</double>\n<double>0.0</double>\n<double>-1.0</double>\n</mOrientation>\n</BulkSample>
#SPECTRUM    :
0,
0,
0,
0,
13,
54,
4231,
274549,
266,
4612,
1233,
2941,
1546,
2053,
6840,
7869,
16501,
69791,
7066,
4775,
4456,
4760,
4880,
5090,
5360,
5534,
5522,
5667,
5622,
5366,
5110,
5204,
5299,
5073,
4836,
5059,
5217,
5008,
6441,
84339,
289389,
39134,
23827,
9098,
2987,
2846,
2819,
2739,
2721,
2680,
2511,
2468,
2522,
2390,
2350,
2306,
2325,
2114,
2102,
2113,
2028,
2056,
1880,
1872,
1916,
1875,
1853,
1730,
1735,
1693,
1661,
1671,
1478,
1337,
1356,
1421,
1377,
1456,
1471,
1386,
1297,
1269,
1298,
1209,
1268,
1279,
1147,
1184,
1166,
1142,
1112,
1053,
1096,
1040,
988,
1096,
1790,
10939,
35065,
25671,
4851,
1174,
907,
954,
925,
947,
1626,
4176,
4959,
2098,
845,
756,
681,
745,
763,
619,
628,
642,
580,
576,
596,
590,
581,
570,
585,
537,
540,
496,
480,
490,
460,
480,
478,
467,
486,
449,
439,
466,
389,
439,
369,
364,
394,
426,
396,
347,
375,
420,
328,
323,
345,
334,
352,
358,
308,
287,
262,
327,
306,
246,
216,
270,
240,
246,
216,
232,
196,
196,
209,
230,
197,
186,
178,
176,
178,
156,
158,
152,
163,
151,
152,
139,
146,
141,
133,
119,
95,
96,
111,
96,
86,
94,
84,
82,
87,
79,
72,
64,
68,
54,
62,
53,
53,
39,
38,
35,
42,
42,
42,
30,
29,
32,
30,
19,
15,
8,
15,
8,
13,
8,
10,
2,
0,
0,
0,
0,
0,
3,
0,
0,
0,
0,
0,
0,
0,
0,
0,
0,
0,
0,
0,
0,
2,
0,
0,
0,
0,
0,
0,
1,
0,
0,
0,
1,
0,
1,
1,
0,
0,
0,
0,
0,
1,
1,
0,
0,
0,
0,
0,
0,
0,
0,
0,
0,
0,
0,
0,
0,
0,
0,
0,
0,
0,
1,
0,
0,
1,
0,
0,
0,
0,
0,
0,
0,
#ENDOFDATA   :