File: NeXLSpectrum/Pyrite fragments/Pyrite_1_K3_15kV10nA130kHz_2kHz_100s.msa
#FORMAT      : EMSA/MAS Spectral Data File
#VERSION     : 1.0
#TITLE       : Bruker Nano spectrum Acquisition
#DATE        : 23-AUG-2019
#TIME        : 00:47
#OWNER       : Bruker Nano
#NPOINTS     : 4096
#NCOLUMNS    : 1
#XUNITS      : eV
#YUNITS      : counts
#DATATYPE    : Y
#XPERCHAN    : 5.00257
#OFFSET      : -482.8305
#BEAMKV      : 15
#SIGNALTYPE  : EDS
#ELEVANGLE   : 40
#AZIMANGLE   : 45
#LIVETIME    : 99.999
#REALTIME    : 100.038
#PROBECUR    : 10
#TAUWIND     : 0
#TDEADLYR    : 0
#TACTLYR     : 0.045
#TALWIND     : 0.004
#CHOFFSET    : 0.0
#XLABEL      : Energy (eV)
#YLABEL      : Counts
#EDSDET      : SDUTW
##DET_HASH   : c6370f9e-cc72-7559-f57e-203d75c8942b
##CALIB_HASH : fcf71094-1a10-2882-685e-00197fff5925
##SAMPLE     : <BulkSample id="1">\n<mOrientation id="2">\n<double>0.0</double>\n<double>0.0</double>\n<double>-1.0</double>\n</mOrientation>\n</BulkSample>
#SPECTRUM    :
0,
0,
0,
0,
0,
0,
103,
8434,
1,
83,
149,
1727,
44,
48,
269,
164,
177,
792,
108,
121,
86,
59,
67,
69,
68,
91,
72,
64,
62,
58,
74,
53,
75,
75,
55,
60,
56,
65,
73,
774,
2870,
391,
237,
92,
45,
38,
31,
31,
37,
30,
30,
34,
21,
34,
36,
35,
23,
27,
31,
29,
45,
35,
18,
25,
30,
33,
25,
23,
17,
21,
27,
22,
22,
25,
13,
18,
8,
21,
18,
18,
17,
19,
19,
20,
17,
22,
10,
20,
16,
18,
17,
20,
17,
33,
15,
27,
50,
335,
1026,
742,
130,
27,
22,
30,
26,
31,
68,
170,
206,
56,
14,
9,
9,
17,
11,
13,
13,
18,
8,
10,
6,
12,
9,
7,
9,
14,
4,
11,
7,
8,
8,
10,
7,
14,
4,
10,
14,
13,
13,
8,
9,
13,
15,
19,
12,
10,
12,
20,
11,
14,
11,
7,
12,
17,
12,
9,
15,
18,
18,
8,
14,
17,
18,
12,
14,
9,
13,
13,
11,
12,
14,
11,
13,
11,
7,
14,
10,
8,
12,
15,
9,
11,
15,
10,
14,
9,
14,
14,
15,
16,
11,
12,
9,
7,
13,
9,
14,
6,
7,
7,
8,
6,
6,
10,
13,
5,
5,
9,
2,
0,
2,
7,
4,
4,
3,
2,
3,
2,
1,
0,
1,
0,
2,
0,
0,
0,
0,
0,
0,
0,
0,
0,
0,
0,
0,
0,
0,
0,
0,
0,
0,
0,
0,
0,
0,
0,
0,
0,
0,
0,
0,
0,
0,
0,
0,
0,
0,
0,
0,
0,
0,
0,
0,
0,
0,
0,
0,
0,
0,
0,
0,
0,
0,
0,
0,
0,
0,
0,
0,
0,
0,
0,
0,
0,
0,
0,
0,
0,
0,
0,
0,
0,
0,
0,
#ENDOFDATA   :