File: NeXLSpectrum/Pyrite fragments/Pyrite_1_J3_15kV10nA130kHz_28kHz_100s.msa
#FORMAT      : EMSA/MAS Spectral Data File
#VERSION     : 1.0
#TITLE       : Bruker Nano spectrum Acquisition
#DATE        : 23-AUG-2019
#TIME        : 00:40
#OWNER       : Bruker Nano
#NPOINTS     : 4096
#NCOLUMNS    : 1
#XUNITS      : eV
#YUNITS      : counts
#DATATYPE    : Y
#XPERCHAN    : 5.00257
#OFFSET      : -482.8305
#BEAMKV      : 15
#SIGNALTYPE  : EDS
#ELEVANGLE   : 40
#AZIMANGLE   : 45
#LIVETIME    : 100
#REALTIME    : 104.406
#PROBECUR    : 10
#TAUWIND     : 0
#TDEADLYR    : 0
#TACTLYR     : 0.045
#TALWIND     : 0.004
#CHOFFSET    : 0.0
#XLABEL      : Energy (eV)
#YLABEL      : Counts
#EDSDET      : SDUTW
##DET_HASH   : c6370f9e-cc72-7559-f57e-203d75c8942b
##CALIB_HASH : fcf71094-1a10-2882-685e-00197fff5925
##SAMPLE     : <BulkSample id="1">\n<mOrientation id="2">\n<double>0.0</double>\n<double>0.0</double>\n<double>-1.0</double>\n</mOrientation>\n</BulkSample>
#SPECTRUM    :
0,
0,
0,
0,
1,
3,
590,
41936,
1,
129,
221,
1644,
123,
153,
2009,
806,
727,
3072,
359,
283,
298,
270,
294,
320,
335,
361,
358,
415,
483,
437,
415,
469,
523,
453,
518,
521,
584,
590,
814,
13231,
45598,
5782,
3835,
1171,
290,
271,
276,
270,
266,
278,
288,
280,
289,
322,
322,
307,
333,
344,
348,
364,
372,
331,
364,
361,
342,
339,
353,
377,
367,
342,
355,
394,
396,
372,
401,
388,
432,
403,
414,
399,
406,
389,
410,
438,
389,
416,
445,
419,
435,
416,
433,
430,
444,
439,
441,
501,
783,
5313,
16872,
12414,
2257,
516,
396,
399,
429,
479,
863,
2322,
2641,
1012,
258,
199,
199,
217,
204,
210,
179,
213,
212,
202,
197,
213,
225,
212,
208,
221,
214,
227,
219,
213,
181,
195,
187,
201,
191,
197,
186,
181,
201,
197,
176,
169,
189,
203,
171,
199,
175,
174,
175,
189,
152,
164,
184,
171,
173,
171,
154,
156,
142,
159,
141,
159,
127,
118,
134,
125,
117,
128,
118,
129,
109,
133,
136,
101,
103,
115,
116,
114,
97,
101,
95,
103,
83,
90,
98,
90,
82,
75,
72,
59,
78,
43,
70,
61,
63,
59,
50,
64,
45,
46,
46,
53,
39,
35,
33,
29,
36,
29,
36,
35,
20,
20,
19,
17,
14,
12,
9,
13,
8,
9,
4,
6,
0,
0,
0,
0,
0,
0,
0,
2,
0,
1,
1,
0,
0,
0,
0,
0,
0,
0,
0,
0,
1,
0,
0,
0,
1,
0,
2,
0,
1,
0,
0,
0,
0,
0,
0,
0,
1,
1,
0,
0,
1,
0,
0,
0,
0,
0,
0,
0,
0,
1,
0,
1,
0,
0,
0,
0,
0,
0,
0,
0,
0,
0,
0,
0,
0,
0,
1,
0,
0,
0,
0,
0,
#ENDOFDATA   :