File: NeXLSpectrum/Pyrite fragments/Pyrite_1_L2_15kV10nA130kHz_114kHz_100s.msa
#FORMAT      : EMSA/MAS Spectral Data File
#VERSION     : 1.0
#TITLE       : Bruker Nano spectrum Acquisition
#DATE        : 23-AUG-2019
#TIME        : 01:02
#OWNER       : Bruker Nano
#NPOINTS     : 4096
#NCOLUMNS    : 1
#XUNITS      : eV
#YUNITS      : counts
#DATATYPE    : Y
#XPERCHAN    : 5.00257
#OFFSET      : -482.8305
#BEAMKV      : 15
#SIGNALTYPE  : EDS
#ELEVANGLE   : 40
#AZIMANGLE   : 45
#LIVETIME    : 100
#REALTIME    : 126.888
#PROBECUR    : 10
#TAUWIND     : 0
#TDEADLYR    : 0
#TACTLYR     : 0.045
#TALWIND     : 0.004
#CHOFFSET    : 0.0
#XLABEL      : Energy (eV)
#YLABEL      : Counts
#EDSDET      : SDUTW
##DET_HASH   : c6370f9e-cc72-7559-f57e-203d75c8942b
##CALIB_HASH : fcf71094-1a10-2882-685e-00197fff5925
##SAMPLE     : <BulkSample id="1">\n<mOrientation id="2">\n<double>0.0</double>\n<double>0.0</double>\n<double>-1.0</double>\n</mOrientation>\n</BulkSample>
#SPECTRUM    :
0,
0,
0,
0,
5,
35,
3089,
207057,
181,
3608,
1600,
8727,
1194,
1588,
4803,
5921,
12052,
52185,
5266,
4409,
3515,
3455,
3555,
3799,
3959,
4189,
4261,
4322,
4479,
4237,
4144,
4139,
4399,
4165,
4080,
4057,
4303,
4145,
5343,
72906,
249874,
33768,
20242,
7842,
2557,
2326,
2230,
2260,
2227,
2153,
2117,
2113,
2099,
1998,
1932,
1923,
1913,
1927,
1831,
1760,
1805,
1749,
1766,
1696,
1673,
1564,
1543,
1622,
1495,
1512,
1425,
1432,
1336,
1235,
1265,
1309,
1314,
1254,
1270,
1225,
1197,
1184,
1109,
1128,
1100,
1108,
1021,
1055,
1083,
965,
997,
967,
999,
1019,
934,
1025,
1512,
10226,
32533,
23901,
4377,
991,
803,
845,
804,
795,
1466,
3869,
4539,
1880,
772,
676,
656,
743,
742,
660,
534,
578,
560,
545,
571,
507,
556,
482,
534,
477,
522,
500,
461,
428,
449,
441,
414,
399,
417,
426,
383,
384,
385,
408,
356,
367,
355,
343,
380,
352,
311,
321,
318,
323,
340,
285,
282,
293,
279,
258,
276,
286,
268,
228,
235,
247,
223,
222,
225,
174,
229,
213,
188,
180,
187,
183,
185,
153,
157,
174,
131,
135,
151,
147,
138,
113,
123,
135,
109,
98,
124,
104,
91,
87,
88,
90,
81,
91,
80,
56,
68,
66,
68,
54,
54,
65,
48,
40,
42,
38,
46,
25,
39,
31,
31,
28,
26,
10,
15,
18,
9,
12,
8,
5,
0,
2,
0,
0,
0,
1,
0,
0,
0,
2,
4,
0,
0,
0,
0,
0,
0,
1,
0,
0,
0,
0,
0,
0,
1,
0,
0,
0,
0,
0,
0,
0,
1,
0,
0,
0,
0,
0,
1,
1,
0,
0,
0,
1,
0,
0,
0,
0,
0,
0,
0,
0,
0,
1,
0,
0,
0,
0,
0,
0,
1,
0,
0,
0,
0,
0,
0,
1,
1,
0,
0,
0,
0,
0,
#ENDOFDATA   :