File: NeXLSpectrum/Pyrite fragments/Pyrite_1_G1_15kV10nA130kHz_129kHz_100s.msa
#FORMAT      : EMSA/MAS Spectral Data File
#VERSION     : 1.0
#TITLE       : Bruker Nano spectrum Acquisition
#DATE        : 23-AUG-2019
#TIME        : 00:02
#OWNER       : Bruker Nano
#NPOINTS     : 4096
#NCOLUMNS    : 1
#XUNITS      : eV
#YUNITS      : counts
#DATATYPE    : Y
#XPERCHAN    : 5.00257
#OFFSET      : -482.8305
#BEAMKV      : 15
#SIGNALTYPE  : EDS
#ELEVANGLE   : 40
#AZIMANGLE   : 45
#LIVETIME    : 100
#REALTIME    : 131.588
#PROBECUR    : 10
#TAUWIND     : 0
#TDEADLYR    : 0
#TACTLYR     : 0.045
#TALWIND     : 0.004
#CHOFFSET    : 0.0
#XLABEL      : Energy (eV)
#YLABEL      : Counts
#EDSDET      : SDUTW
##DET_HASH   : c6370f9e-cc72-7559-f57e-203d75c8942b
##CALIB_HASH : fcf71094-1a10-2882-685e-00197fff5925
##SAMPLE     : <BulkSample id="1">\n<mOrientation id="2">\n<double>0.0</double>\n<double>0.0</double>\n<double>-1.0</double>\n</mOrientation>\n</BulkSample>
#SPECTRUM    :
0,
0,
0,
0,
8,
57,
4210,
275945,
264,
4014,
1025,
2586,
1104,
1597,
3682,
6498,
15462,
64575,
6345,
4175,
3782,
4223,
4437,
4707,
5016,
5133,
5144,
5235,
5372,
5161,
4854,
4926,
5083,
4883,
4738,
4804,
5075,
4747,
6089,
82479,
283937,
38245,
23244,
8794,
2926,
2693,
2586,
2592,
2580,
2588,
2497,
2444,
2418,
2345,
2333,
2245,
2209,
2219,
2065,
2055,
2046,
1935,
1955,
1876,
1842,
1847,
1778,
1758,
1690,
1660,
1687,
1591,
1484,
1351,
1353,
1383,
1403,
1431,
1370,
1345,
1359,
1308,
1296,
1214,
1196,
1179,
1158,
1222,
1175,
1000,
1103,
1081,
1020,
1017,
1058,
1081,
1723,
10970,
34710,
25485,
4804,
1106,
977,
884,
864,
913,
1559,
4240,
4906,
2095,
844,
703,
691,
728,
704,
662,
635,
556,
595,
607,
603,
558,
563,
563,
563,
536,
535,
482,
511,
469,
468,
461,
451,
419,
438,
403,
436,
392,
414,
397,
408,
392,
365,
351,
369,
368,
356,
367,
332,
344,
310,
326,
305,
265,
322,
283,
265,
265,
266,
276,
246,
232,
265,
217,
218,
227,
237,
196,
185,
214,
178,
164,
158,
180,
150,
151,
169,
137,
154,
150,
159,
113,
136,
156,
153,
124,
112,
94,
107,
108,
107,
106,
92,
91,
82,
80,
79,
64,
53,
51,
45,
53,
51,
42,
53,
44,
39,
43,
29,
42,
25,
31,
20,
21,
31,
26,
11,
9,
10,
5,
2,
3,
0,
0,
0,
0,
0,
0,
0,
0,
0,
1,
0,
0,
0,
0,
1,
0,
2,
4,
0,
3,
0,
0,
0,
0,
0,
0,
0,
0,
1,
0,
0,
0,
0,
0,
1,
1,
0,
0,
0,
0,
0,
0,
3,
0,
0,
0,
0,
0,
0,
0,
0,
0,
0,
0,
0,
0,
0,
0,
0,
0,
1,
0,
0,
0,
0,
0,
0,
0,
2,
0,
0,
0,
#ENDOFDATA   :