File: NeXLSpectrum/Pyrite fragments/Pyrite_1_E1_15kV10nA130kHz_95kHz_100s.msa
#FORMAT      : EMSA/MAS Spectral Data File
#VERSION     : 1.0
#TITLE       : Bruker Nano spectrum Acquisition
#DATE        : 23-AUG-2019
#TIME        : 11:05
#OWNER       : Bruker Nano
#NPOINTS     : 4096
#NCOLUMNS    : 1
#XUNITS      : eV
#YUNITS      : counts
#DATATYPE    : Y
#XPERCHAN    : 5.00257
#OFFSET      : -482.8305
#BEAMKV      : 15
#SIGNALTYPE  : EDS
#ELEVANGLE   : 40
#AZIMANGLE   : 45
#LIVETIME    : 100
#REALTIME    : 121.686
#PROBECUR    : 10
#TAUWIND     : 0
#TDEADLYR    : 0
#TACTLYR     : 0.045
#TALWIND     : 0.004
#CHOFFSET    : 0.0
#XLABEL      : Energy (eV)
#YLABEL      : Counts
#EDSDET      : SDUTW
##DET_HASH   : c6370f9e-cc72-7559-f57e-203d75c8942b
##CALIB_HASH : fcf71094-1a10-2882-685e-00197fff5925
##SAMPLE     : <BulkSample id="1">\n<mOrientation id="2">\n<double>0.0</double>\n<double>0.0</double>\n<double>-1.0</double>\n</mOrientation>\n</BulkSample>
#SPECTRUM    :
0,
0,
0,
0,
4,
32,
2531,
166141,
96,
1374,
1223,
9147,
988,
1129,
6955,
4082,
5924,
26259,
2630,
1698,
1858,
1902,
2164,
2266,
2500,
2620,
2815,
2973,
3093,
3022,
2995,
3103,
3221,
3147,
3200,
3503,
3473,
3415,
4550,
63155,
219484,
29371,
17760,
6329,
1969,
1811,
1766,
1784,
1770,
1784,
1764,
1769,
1765,
1726,
1718,
1718,
1722,
1700,
1634,
1612,
1644,
1638,
1570,
1516,
1533,
1509,
1493,
1429,
1453,
1389,
1362,
1387,
1291,
1178,
1217,
1276,
1246,
1279,
1174,
1233,
1215,
1106,
1066,
1129,
1130,
1116,
1109,
1062,
1072,
989,
1023,
1019,
965,
926,
931,
1014,
1602,
10052,
31719,
23561,
4340,
1019,
852,
799,
795,
882,
1440,
4023,
4557,
1876,
698,
625,
630,
621,
602,
613,
521,
539,
545,
537,
521,
537,
526,
507,
535,
489,
463,
470,
473,
453,
443,
432,
416,
420,
422,
392,
442,
405,
420,
401,
348,
344,
341,
347,
314,
335,
313,
316,
302,
329,
277,
277,
272,
280,
285,
277,
274,
236,
256,
239,
225,
218,
261,
219,
206,
223,
201,
181,
222,
196,
195,
183,
152,
190,
163,
154,
140,
142,
135,
132,
139,
120,
114,
127,
131,
107,
108,
116,
80,
89,
89,
92,
83,
80,
75,
74,
69,
68,
71,
51,
53,
52,
71,
42,
39,
40,
42,
20,
38,
28,
28,
32,
26,
23,
14,
11,
16,
14,
6,
3,
1,
0,
0,
0,
0,
0,
0,
0,
0,
0,
0,
3,
0,
0,
0,
0,
0,
0,
0,
1,
0,
0,
0,
0,
0,
0,
0,
0,
0,
0,
0,
1,
0,
0,
0,
0,
0,
0,
0,
0,
1,
0,
0,
0,
0,
0,
0,
0,
0,
0,
0,
0,
1,
0,
0,
0,
0,
1,
1,
0,
0,
0,
0,
1,
0,
0,
1,
1,
0,
0,
0,
0,
0,
0,
#ENDOFDATA   :