File: NeXLSpectrum/Pyrite fragments/Pyrite_1_F2_15kV10nA130kHz_114kHz_100s.msa
#FORMAT      : EMSA/MAS Spectral Data File
#VERSION     : 1.0
#TITLE       : Bruker Nano spectrum Acquisition
#DATE        : 23-AUG-2019
#TIME        : 11:16
#OWNER       : Bruker Nano
#NPOINTS     : 4096
#NCOLUMNS    : 1
#XUNITS      : eV
#YUNITS      : counts
#DATATYPE    : Y
#XPERCHAN    : 5.00257
#OFFSET      : -482.8305
#BEAMKV      : 15
#SIGNALTYPE  : EDS
#ELEVANGLE   : 40
#AZIMANGLE   : 45
#LIVETIME    : 100
#REALTIME    : 127.241
#PROBECUR    : 10
#TAUWIND     : 0
#TDEADLYR    : 0
#TACTLYR     : 0.045
#TALWIND     : 0.004
#CHOFFSET    : 0.0
#XLABEL      : Energy (eV)
#YLABEL      : Counts
#EDSDET      : SDUTW
##DET_HASH   : c6370f9e-cc72-7559-f57e-203d75c8942b
##CALIB_HASH : fcf71094-1a10-2882-685e-00197fff5925
##SAMPLE     : <BulkSample id="1">\n<mOrientation id="2">\n<double>0.0</double>\n<double>0.0</double>\n<double>-1.0</double>\n</mOrientation>\n</BulkSample>
#SPECTRUM    :
0,
0,
0,
0,
8,
30,
3183,
206888,
212,
3485,
1733,
10583,
1136,
1453,
4552,
5513,
12429,
52936,
5382,
4044,
3324,
3528,
3666,
3837,
4023,
4303,
4184,
4417,
4510,
4297,
4204,
4238,
4370,
4251,
4052,
4165,
4309,
4265,
5404,
73729,
253756,
33855,
20955,
7760,
2584,
2393,
2321,
2316,
2249,
2194,
2135,
2102,
2094,
2085,
2013,
2048,
1971,
1842,
1884,
1907,
1806,
1737,
1701,
1720,
1702,
1663,
1629,
1575,
1484,
1505,
1450,
1418,
1393,
1251,
1281,
1311,
1311,
1316,
1277,
1274,
1220,
1165,
1152,
1139,
1143,
1056,
1059,
1065,
1072,
1027,
942,
933,
985,
1014,
937,
961,
1604,
10254,
32488,
23813,
4510,
973,
846,
819,
771,
805,
1428,
3908,
4558,
1949,
750,
630,
644,
697,
681,
611,
586,
548,
554,
547,
525,
548,
560,
519,
498,
508,
477,
451,
472,
432,
414,
407,
400,
399,
394,
397,
395,
415,
373,
347,
370,
363,
370,
348,
357,
335,
362,
325,
282,
298,
295,
293,
313,
279,
285,
275,
251,
276,
257,
256,
235,
238,
233,
204,
219,
192,
232,
166,
219,
199,
149,
174,
165,
159,
187,
153,
126,
137,
128,
146,
146,
128,
119,
129,
110,
104,
118,
118,
108,
100,
97,
88,
85,
89,
83,
74,
77,
74,
62,
57,
70,
55,
51,
51,
43,
40,
39,
35,
48,
27,
29,
29,
29,
16,
20,
6,
11,
22,
10,
6,
0,
6,
1,
0,
0,
0,
0,
0,
0,
0,
0,
0,
1,
0,
0,
0,
0,
0,
1,
0,
0,
0,
0,
0,
0,
0,
0,
0,
0,
0,
0,
0,
1,
1,
1,
0,
0,
0,
0,
0,
0,
1,
0,
0,
0,
0,
0,
0,
0,
0,
0,
0,
0,
0,
0,
0,
0,
0,
0,
0,
0,
0,
0,
0,
0,
0,
1,
0,
0,
1,
0,
0,
0,
0,
#ENDOFDATA   :