File: NeXLSpectrum/Pyrite fragments/Pyrite_1_J1_15kV10nA130kHz_28kHz_100s.msa
#FORMAT      : EMSA/MAS Spectral Data File
#VERSION     : 1.0
#TITLE       : Bruker Nano spectrum Acquisition
#DATE        : 23-AUG-2019
#TIME        : 00:34
#OWNER       : Bruker Nano
#NPOINTS     : 4096
#NCOLUMNS    : 1
#XUNITS      : eV
#YUNITS      : counts
#DATATYPE    : Y
#XPERCHAN    : 5.00257
#OFFSET      : -482.8305
#BEAMKV      : 15
#SIGNALTYPE  : EDS
#ELEVANGLE   : 40
#AZIMANGLE   : 45
#LIVETIME    : 100
#REALTIME    : 105.389
#PROBECUR    : 10
#TAUWIND     : 0
#TDEADLYR    : 0
#TACTLYR     : 0.045
#TALWIND     : 0.004
#CHOFFSET    : 0.0
#XLABEL      : Energy (eV)
#YLABEL      : Counts
#EDSDET      : SDUTW
##DET_HASH   : c6370f9e-cc72-7559-f57e-203d75c8942b
##CALIB_HASH : fcf71094-1a10-2882-685e-00197fff5925
##SAMPLE     : <BulkSample id="1">\n<mOrientation id="2">\n<double>0.0</double>\n<double>0.0</double>\n<double>-1.0</double>\n</mOrientation>\n</BulkSample>
#SPECTRUM    :
0,
0,
0,
0,
0,
1,
745,
49498,
8,
141,
220,
1752,
171,
171,
2324,
859,
740,
3360,
342,
300,
343,
271,
302,
339,
382,
462,
455,
375,
491,
470,
510,
560,
610,
591,
662,
674,
754,
729,
1040,
16395,
57908,
7606,
4638,
1457,
349,
292,
327,
312,
348,
332,
359,
363,
392,
397,
374,
392,
391,
405,
425,
450,
457,
428,
496,
444,
417,
424,
446,
466,
467,
462,
456,
479,
472,
443,
454,
514,
491,
457,
479,
458,
465,
474,
514,
467,
476,
501,
510,
480,
470,
485,
466,
486,
465,
468,
475,
519,
866,
5787,
18474,
13832,
2446,
517,
486,
485,
482,
467,
947,
2478,
2828,
1061,
340,
251,
269,
261,
262,
227,
237,
231,
232,
246,
235,
274,
226,
238,
238,
222,
235,
211,
232,
221,
232,
234,
224,
225,
226,
205,
213,
227,
214,
204,
208,
206,
210,
198,
224,
210,
197,
185,
157,
208,
199,
143,
173,
181,
197,
171,
168,
169,
176,
163,
160,
154,
165,
151,
146,
153,
121,
135,
132,
128,
138,
121,
128,
100,
145,
123,
133,
111,
113,
112,
101,
78,
106,
78,
103,
94,
80,
91,
89,
73,
72,
60,
67,
71,
69,
59,
60,
57,
64,
44,
55,
65,
41,
47,
33,
37,
30,
29,
29,
31,
28,
31,
20,
18,
14,
19,
14,
8,
4,
4,
0,
1,
1,
2,
0,
0,
1,
0,
0,
0,
0,
0,
0,
0,
0,
0,
0,
0,
0,
0,
0,
0,
0,
0,
1,
0,
0,
1,
0,
0,
0,
0,
0,
0,
2,
0,
0,
0,
0,
0,
0,
0,
0,
0,
1,
0,
0,
0,
0,
0,
0,
0,
1,
0,
0,
0,
0,
0,
0,
0,
1,
0,
0,
0,
0,
0,
0,
0,
0,
0,
0,
0,
0,
0,
#ENDOFDATA   :