File: NeXLSpectrum/Pyrite fragments/Pyrite_1_C2_15kV10nA130kHz_86kHz_100s.msa
#FORMAT      : EMSA/MAS Spectral Data File
#VERSION     : 1.0
#TITLE       : Bruker Nano spectrum Acquisition
#DATE        : 23-AUG-2019
#TIME        : 10:49
#OWNER       : Bruker Nano
#NPOINTS     : 4096
#NCOLUMNS    : 1
#XUNITS      : eV
#YUNITS      : counts
#DATATYPE    : Y
#XPERCHAN    : 5.00257
#OFFSET      : -482.8305
#BEAMKV      : 15
#SIGNALTYPE  : EDS
#ELEVANGLE   : 40
#AZIMANGLE   : 45
#LIVETIME    : 100
#REALTIME    : 119.114
#PROBECUR    : 10
#TAUWIND     : 0
#TDEADLYR    : 0
#TACTLYR     : 0.045
#TALWIND     : 0.004
#CHOFFSET    : 0.0
#XLABEL      : Energy (eV)
#YLABEL      : Counts
#EDSDET      : SDUTW
##DET_HASH   : c6370f9e-cc72-7559-f57e-203d75c8942b
##CALIB_HASH : fcf71094-1a10-2882-685e-00197fff5925
##SAMPLE     : <BulkSample id="1">\n<mOrientation id="2">\n<double>0.0</double>\n<double>0.0</double>\n<double>-1.0</double>\n</mOrientation>\n</BulkSample>
#SPECTRUM    :
0,
0,
0,
0,
2,
18,
2494,
165492,
58,
874,
713,
4557,
673,
706,
4504,
3085,
4296,
18424,
1732,
1313,
1252,
1390,
1525,
1613,
1773,
1968,
2117,
2224,
2408,
2351,
2346,
2525,
2688,
2661,
2773,
2943,
3221,
3078,
4044,
58285,
202335,
26873,
16182,
5581,
1572,
1495,
1420,
1510,
1497,
1544,
1541,
1578,
1526,
1509,
1547,
1523,
1449,
1595,
1539,
1504,
1520,
1432,
1496,
1411,
1397,
1399,
1440,
1338,
1404,
1313,
1322,
1355,
1237,
1121,
1130,
1175,
1218,
1242,
1234,
1143,
1184,
1130,
1119,
1049,
1108,
1072,
1079,
977,
1005,
1012,
964,
1015,
1017,
959,
953,
1000,
1586,
10151,
32139,
23769,
4513,
972,
893,
810,
855,
866,
1435,
4121,
4577,
1822,
708,
599,
581,
586,
600,
567,
561,
552,
560,
562,
539,
486,
544,
461,
548,
497,
507,
460,
470,
426,
408,
430,
415,
415,
428,
447,
373,
401,
378,
377,
387,
363,
367,
353,
366,
354,
345,
330,
303,
312,
318,
298,
258,
275,
294,
263,
240,
273,
253,
222,
243,
233,
228,
251,
245,
229,
203,
211,
197,
194,
189,
185,
161,
158,
175,
147,
165,
156,
123,
162,
122,
130,
131,
129,
157,
131,
98,
121,
100,
104,
105,
83,
86,
83,
73,
81,
77,
76,
58,
50,
61,
52,
43,
62,
46,
39,
34,
29,
28,
35,
38,
28,
13,
12,
15,
17,
10,
5,
14,
10,
7,
3,
3,
0,
0,
2,
0,
0,
0,
0,
0,
1,
3,
0,
0,
0,
0,
0,
0,
0,
0,
0,
0,
0,
0,
0,
0,
0,
0,
0,
0,
0,
0,
0,
0,
2,
0,
0,
0,
0,
0,
0,
0,
0,
0,
0,
0,
0,
0,
0,
0,
0,
0,
0,
0,
0,
0,
0,
0,
0,
0,
0,
1,
0,
0,
0,
0,
0,
0,
0,
0,
0,
0,
0,
#ENDOFDATA   :