File: NeXLSpectrum/Pyrite fragments/Pyrite_1_C1_15kV10nA130kHz_86kHz_100s.msa
#FORMAT      : EMSA/MAS Spectral Data File
#VERSION     : 1.0
#TITLE       : Bruker Nano spectrum Acquisition
#DATE        : 23-AUG-2019
#TIME        : 10:46
#OWNER       : Bruker Nano
#NPOINTS     : 4096
#NCOLUMNS    : 1
#XUNITS      : eV
#YUNITS      : counts
#DATATYPE    : Y
#XPERCHAN    : 5.00257
#OFFSET      : -482.8305
#BEAMKV      : 15
#SIGNALTYPE  : EDS
#ELEVANGLE   : 40
#AZIMANGLE   : 45
#LIVETIME    : 100
#REALTIME    : 119.038
#PROBECUR    : 10
#TAUWIND     : 0
#TDEADLYR    : 0
#TACTLYR     : 0.045
#TALWIND     : 0.004
#CHOFFSET    : 0.0
#XLABEL      : Energy (eV)
#YLABEL      : Counts
#EDSDET      : SDUTW
##DET_HASH   : c6370f9e-cc72-7559-f57e-203d75c8942b
##CALIB_HASH : fcf71094-1a10-2882-685e-00197fff5925
##SAMPLE     : <BulkSample id="1">\n<mOrientation id="2">\n<double>0.0</double>\n<double>0.0</double>\n<double>-1.0</double>\n</mOrientation>\n</BulkSample>
#SPECTRUM    :
0,
0,
0,
0,
4,
24,
2376,
165701,
68,
775,
699,
4319,
692,
776,
4907,
2954,
4070,
17844,
1754,
1545,
1315,
1364,
1601,
1576,
1809,
2029,
2051,
2221,
2317,
2369,
2328,
2547,
2734,
2689,
2656,
2854,
3002,
3198,
4068,
58183,
201422,
26624,
16438,
5498,
1523,
1449,
1524,
1520,
1491,
1515,
1496,
1559,
1531,
1536,
1532,
1533,
1538,
1540,
1520,
1554,
1496,
1483,
1467,
1470,
1453,
1369,
1446,
1410,
1369,
1340,
1374,
1288,
1265,
1148,
1134,
1236,
1190,
1226,
1208,
1223,
1143,
1141,
1173,
1085,
1109,
1029,
1020,
1113,
994,
965,
1044,
1005,
977,
1023,
994,
1002,
1538,
10385,
32593,
23401,
4379,
1000,
871,
837,
857,
874,
1498,
4015,
4670,
1860,
703,
560,
574,
670,
641,
562,
566,
525,
525,
530,
516,
541,
529,
452,
500,
523,
458,
495,
460,
474,
438,
440,
434,
409,
453,
404,
404,
434,
389,
382,
354,
357,
358,
340,
330,
328,
342,
327,
327,
289,
298,
286,
313,
296,
256,
287,
237,
253,
243,
262,
235,
262,
203,
226,
221,
202,
218,
224,
210,
197,
212,
176,
186,
173,
156,
154,
185,
163,
112,
139,
98,
137,
119,
120,
126,
110,
129,
116,
95,
99,
99,
82,
85,
92,
73,
70,
54,
64,
63,
60,
71,
55,
41,
41,
38,
37,
37,
37,
29,
30,
25,
29,
22,
22,
25,
19,
9,
18,
7,
6,
0,
2,
1,
4,
0,
0,
0,
0,
0,
0,
0,
0,
2,
0,
0,
0,
0,
0,
1,
0,
0,
0,
0,
0,
1,
0,
0,
0,
0,
0,
1,
1,
0,
0,
0,
0,
0,
1,
1,
2,
0,
0,
0,
0,
0,
0,
0,
0,
0,
0,
0,
0,
0,
0,
0,
0,
0,
0,
1,
0,
0,
0,
0,
1,
1,
0,
0,
0,
0,
0,
0,
0,
0,
0,
#ENDOFDATA   :