File: NeXLSpectrum/Pyrite fragments/Pyrite_1_G2_15kV10nA130kHz_129kHz_100s.msa
#FORMAT      : EMSA/MAS Spectral Data File
#VERSION     : 1.0
#TITLE       : Bruker Nano spectrum Acquisition
#DATE        : 23-AUG-2019
#TIME        : 00:05
#OWNER       : Bruker Nano
#NPOINTS     : 4096
#NCOLUMNS    : 1
#XUNITS      : eV
#YUNITS      : counts
#DATATYPE    : Y
#XPERCHAN    : 5.00257
#OFFSET      : -482.8305
#BEAMKV      : 15
#SIGNALTYPE  : EDS
#ELEVANGLE   : 40
#AZIMANGLE   : 45
#LIVETIME    : 100
#REALTIME    : 131.567
#PROBECUR    : 10
#TAUWIND     : 0
#TDEADLYR    : 0
#TACTLYR     : 0.045
#TALWIND     : 0.004
#CHOFFSET    : 0.0
#XLABEL      : Energy (eV)
#YLABEL      : Counts
#EDSDET      : SDUTW
##DET_HASH   : c6370f9e-cc72-7559-f57e-203d75c8942b
##CALIB_HASH : fcf71094-1a10-2882-685e-00197fff5925
##SAMPLE     : <BulkSample id="1">\n<mOrientation id="2">\n<double>0.0</double>\n<double>0.0</double>\n<double>-1.0</double>\n</mOrientation>\n</BulkSample>
#SPECTRUM    :
0,
0,
0,
0,
9,
39,
4238,
275247,
239,
4009,
1118,
2629,
1149,
1639,
3577,
6498,
15418,
64706,
6292,
4256,
3919,
4187,
4446,
4738,
4897,
5089,
5190,
5313,
5352,
5006,
4891,
4940,
5107,
4886,
4682,
4811,
5157,
4910,
6177,
82496,
283813,
37626,
23129,
8805,
2852,
2752,
2649,
2660,
2601,
2725,
2525,
2460,
2368,
2293,
2333,
2280,
2213,
2162,
2078,
2032,
2089,
1929,
1949,
1870,
1809,
1858,
1811,
1723,
1700,
1653,
1604,
1579,
1533,
1411,
1417,
1448,
1440,
1398,
1400,
1347,
1340,
1320,
1319,
1191,
1193,
1122,
1228,
1172,
1153,
1046,
1056,
1102,
1106,
1078,
1150,
1147,
1732,
11081,
34471,
25384,
4748,
1107,
920,
869,
853,
921,
1591,
4151,
4979,
2101,
828,
691,
635,
664,
735,
624,
628,
579,
573,
601,
615,
572,
569,
584,
578,
573,
537,
518,
504,
459,
464,
457,
449,
434,
429,
418,
445,
414,
389,
403,
391,
379,
358,
345,
379,
374,
344,
344,
323,
350,
321,
304,
291,
334,
321,
290,
316,
241,
259,
229,
224,
271,
250,
205,
268,
217,
227,
214,
189,
213,
196,
175,
182,
183,
204,
179,
153,
174,
145,
139,
136,
148,
139,
140,
138,
134,
118,
81,
88,
92,
81,
93,
103,
80,
80,
86,
68,
78,
72,
55,
61,
65,
41,
39,
52,
53,
47,
37,
30,
28,
26,
27,
23,
25,
8,
15,
11,
12,
10,
9,
4,
4,
2,
0,
0,
0,
0,
0,
0,
0,
1,
0,
0,
0,
0,
0,
0,
1,
0,
2,
1,
1,
1,
0,
0,
0,
0,
0,
0,
0,
0,
0,
1,
2,
0,
0,
0,
1,
2,
0,
0,
1,
0,
1,
0,
1,
1,
1,
0,
0,
0,
1,
0,
0,
0,
0,
0,
0,
0,
0,
0,
0,
0,
0,
0,
0,
0,
0,
1,
0,
1,
0,
1,
0,
#ENDOFDATA   :