File: NeXLSpectrum/Pyrite fragments/Pyrite_1_H3_15kV10nA130kHz_31kHz_100s.msa
#FORMAT      : EMSA/MAS Spectral Data File
#VERSION     : 1.0
#TITLE       : Bruker Nano spectrum Acquisition
#DATE        : 23-AUG-2019
#TIME        : 00:17
#OWNER       : Bruker Nano
#NPOINTS     : 4096
#NCOLUMNS    : 1
#XUNITS      : eV
#YUNITS      : counts
#DATATYPE    : Y
#XPERCHAN    : 5.00257
#OFFSET      : -482.8305
#BEAMKV      : 15
#SIGNALTYPE  : EDS
#ELEVANGLE   : 40
#AZIMANGLE   : 45
#LIVETIME    : 100
#REALTIME    : 105.866
#PROBECUR    : 10
#TAUWIND     : 0
#TDEADLYR    : 0
#TACTLYR     : 0.045
#TALWIND     : 0.004
#CHOFFSET    : 0.0
#XLABEL      : Energy (eV)
#YLABEL      : Counts
#EDSDET      : SDUTW
##DET_HASH   : c6370f9e-cc72-7559-f57e-203d75c8942b
##CALIB_HASH : fcf71094-1a10-2882-685e-00197fff5925
##SAMPLE     : <BulkSample id="1">\n<mOrientation id="2">\n<double>0.0</double>\n<double>0.0</double>\n<double>-1.0</double>\n</mOrientation>\n</BulkSample>
#SPECTRUM    :
0,
0,
0,
0,
2,
4,
763,
52337,
7,
151,
236,
2148,
185,
193,
2035,
854,
661,
3158,
348,
301,
312,
315,
293,
332,
326,
396,
363,
408,
451,
429,
452,
503,
545,
522,
549,
619,
661,
689,
992,
15524,
54881,
7273,
4474,
1295,
285,
291,
301,
295,
300,
328,
335,
345,
346,
391,
357,
416,
411,
410,
375,
448,
471,
448,
442,
474,
499,
479,
491,
487,
529,
539,
540,
524,
540,
544,
548,
582,
555,
592,
609,
582,
585,
569,
598,
602,
560,
592,
606,
591,
603,
595,
599,
597,
606,
623,
627,
685,
1077,
7042,
23102,
17022,
3158,
701,
604,
617,
562,
675,
1115,
3037,
3597,
1308,
380,
297,
277,
317,
319,
304,
285,
270,
296,
272,
275,
311,
295,
295,
311,
288,
280,
296,
296,
283,
281,
279,
273,
270,
278,
266,
284,
264,
269,
261,
260,
253,
255,
255,
285,
253,
237,
230,
233,
253,
233,
206,
222,
228,
218,
193,
203,
193,
227,
209,
180,
223,
170,
187,
185,
178,
190,
165,
142,
156,
175,
154,
137,
137,
139,
127,
147,
135,
120,
117,
111,
122,
114,
111,
106,
117,
102,
98,
85,
84,
90,
82,
89,
80,
73,
78,
57,
66,
74,
49,
56,
55,
48,
57,
42,
46,
42,
36,
26,
28,
32,
18,
27,
17,
21,
15,
12,
16,
7,
7,
3,
2,
2,
1,
0,
0,
0,
0,
1,
0,
1,
0,
0,
1,
1,
0,
0,
0,
0,
0,
0,
0,
0,
0,
0,
2,
0,
0,
0,
0,
1,
0,
0,
0,
0,
2,
0,
0,
1,
0,
0,
0,
3,
1,
1,
0,
1,
1,
0,
0,
0,
2,
1,
0,
0,
0,
1,
0,
0,
0,
1,
0,
0,
0,
0,
0,
0,
1,
0,
0,
1,
0,
0,
0,
#ENDOFDATA   :