File: NeXLSpectrum/Pyrite fragments/Pyrite_1_B3_15kV10nA130kHz_133kHz_100s.msa
#FORMAT      : EMSA/MAS Spectral Data File
#VERSION     : 1.0
#TITLE       : Bruker Nano spectrum Acquisition
#DATE        : 23-AUG-2019
#TIME        : 10:43
#OWNER       : Bruker Nano
#NPOINTS     : 4096
#NCOLUMNS    : 1
#XUNITS      : eV
#YUNITS      : counts
#DATATYPE    : Y
#XPERCHAN    : 5.00257
#OFFSET      : -482.8305
#BEAMKV      : 15
#SIGNALTYPE  : EDS
#ELEVANGLE   : 40
#AZIMANGLE   : 45
#LIVETIME    : 100
#REALTIME    : 133.101
#PROBECUR    : 10
#TAUWIND     : 0
#TDEADLYR    : 0
#TACTLYR     : 0.045
#TALWIND     : 0.004
#CHOFFSET    : 0.0
#XLABEL      : Energy (eV)
#YLABEL      : Counts
#EDSDET      : SDUTW
##DET_HASH   : c6370f9e-cc72-7559-f57e-203d75c8942b
##CALIB_HASH : fcf71094-1a10-2882-685e-00197fff5925
##SAMPLE     : <BulkSample id="1">\n<mOrientation id="2">\n<double>0.0</double>\n<double>0.0</double>\n<double>-1.0</double>\n</mOrientation>\n</BulkSample>
#SPECTRUM    :
0,
0,
0,
0,
9,
54,
4312,
275269,
253,
4452,
1294,
2878,
1614,
2048,
7455,
7572,
16438,
68511,
6902,
4685,
4376,
4792,
4880,
5044,
5269,
5587,
5558,
5611,
5720,
5392,
5201,
5334,
5180,
5140,
4923,
5060,
5244,
4942,
6319,
84361,
290160,
39461,
23837,
9059,
3071,
2900,
2766,
2750,
2641,
2672,
2576,
2529,
2415,
2420,
2433,
2257,
2258,
2164,
2140,
2090,
2050,
2023,
1963,
1896,
1849,
1914,
1770,
1776,
1714,
1627,
1679,
1547,
1528,
1380,
1406,
1443,
1436,
1416,
1400,
1380,
1395,
1333,
1301,
1286,
1298,
1187,
1231,
1178,
1069,
1093,
1100,
1030,
1102,
1089,
1080,
1094,
1736,
11188,
35221,
25607,
4857,
1127,
894,
905,
905,
960,
1591,
4234,
4968,
2122,
842,
676,
710,
796,
700,
655,
586,
602,
622,
596,
591,
592,
582,
571,
527,
543,
539,
515,
469,
476,
456,
472,
467,
458,
468,
466,
434,
407,
428,
381,
408,
403,
389,
372,
368,
374,
358,
367,
313,
333,
344,
310,
305,
297,
272,
304,
277,
253,
250,
262,
252,
239,
266,
270,
232,
183,
219,
204,
205,
234,
220,
187,
195,
162,
190,
143,
160,
160,
149,
142,
128,
141,
134,
122,
117,
133,
121,
108,
99,
111,
97,
93,
89,
72,
76,
87,
62,
86,
61,
50,
44,
41,
67,
40,
37,
33,
50,
37,
22,
29,
36,
26,
31,
13,
16,
11,
12,
8,
10,
0,
5,
0,
0,
0,
2,
0,
0,
0,
0,
0,
0,
0,
0,
0,
0,
3,
0,
0,
0,
0,
0,
0,
0,
1,
1,
1,
0,
1,
0,
0,
0,
0,
1,
2,
2,
0,
0,
0,
1,
0,
0,
0,
0,
0,
0,
0,
0,
1,
0,
0,
0,
0,
0,
0,
0,
0,
0,
0,
0,
0,
0,
0,
0,
0,
0,
0,
0,
1,
0,
0,
2,
0,
0,
0,
#ENDOFDATA   :