File: NeXLSpectrum/Pyrite fragments/Pyrite_1_E2_15kV10nA130kHz_95kHz_100s.msa
#FORMAT      : EMSA/MAS Spectral Data File
#VERSION     : 1.0
#TITLE       : Bruker Nano spectrum Acquisition
#DATE        : 23-AUG-2019
#TIME        : 11:08
#OWNER       : Bruker Nano
#NPOINTS     : 4096
#NCOLUMNS    : 1
#XUNITS      : eV
#YUNITS      : counts
#DATATYPE    : Y
#XPERCHAN    : 5.00257
#OFFSET      : -482.8305
#BEAMKV      : 15
#SIGNALTYPE  : EDS
#ELEVANGLE   : 40
#AZIMANGLE   : 45
#LIVETIME    : 100
#REALTIME    : 121.678
#PROBECUR    : 10
#TAUWIND     : 0
#TDEADLYR    : 0
#TACTLYR     : 0.045
#TALWIND     : 0.004
#CHOFFSET    : 0.0
#XLABEL      : Energy (eV)
#YLABEL      : Counts
#EDSDET      : SDUTW
##DET_HASH   : c6370f9e-cc72-7559-f57e-203d75c8942b
##CALIB_HASH : fcf71094-1a10-2882-685e-00197fff5925
##SAMPLE     : <BulkSample id="1">\n<mOrientation id="2">\n<double>0.0</double>\n<double>0.0</double>\n<double>-1.0</double>\n</mOrientation>\n</BulkSample>
#SPECTRUM    :
0,
0,
0,
0,
6,
31,
2373,
166294,
73,
1289,
1248,
9255,
990,
1108,
7720,
4593,
5892,
26214,
2505,
1781,
1827,
1945,
2132,
2204,
2386,
2712,
2843,
2958,
3093,
2960,
3038,
3173,
3319,
3289,
3216,
3455,
3745,
3468,
4529,
63218,
218860,
29155,
17666,
6386,
1986,
1777,
1742,
1826,
1782,
1783,
1763,
1752,
1731,
1687,
1736,
1725,
1671,
1698,
1722,
1580,
1619,
1626,
1556,
1589,
1522,
1528,
1521,
1425,
1384,
1452,
1393,
1361,
1331,
1188,
1203,
1229,
1278,
1240,
1247,
1205,
1203,
1209,
1102,
1141,
1102,
1089,
1084,
1062,
1044,
1019,
1013,
941,
965,
941,
937,
1020,
1632,
9986,
31892,
23175,
4471,
957,
785,
819,
817,
878,
1455,
3768,
4530,
1877,
750,
571,
617,
627,
616,
561,
533,
531,
559,
572,
560,
479,
525,
477,
514,
489,
489,
439,
463,
421,
424,
415,
411,
410,
388,
398,
381,
379,
436,
408,
363,
378,
360,
307,
319,
335,
357,
307,
332,
286,
302,
307,
284,
259,
279,
296,
288,
268,
260,
234,
225,
228,
233,
201,
204,
204,
196,
183,
193,
183,
187,
177,
172,
166,
157,
145,
132,
140,
135,
128,
144,
122,
129,
113,
115,
114,
105,
102,
113,
83,
91,
82,
83,
87,
82,
74,
70,
67,
56,
47,
58,
53,
45,
39,
41,
41,
34,
28,
33,
20,
19,
19,
22,
22,
11,
20,
10,
8,
10,
5,
8,
2,
0,
0,
4,
0,
0,
0,
0,
0,
0,
0,
0,
0,
0,
0,
0,
3,
0,
0,
0,
0,
0,
0,
0,
1,
0,
0,
0,
0,
0,
0,
0,
0,
0,
0,
1,
0,
0,
0,
0,
0,
0,
0,
0,
0,
0,
0,
0,
0,
0,
0,
0,
0,
0,
0,
0,
0,
0,
0,
0,
0,
0,
0,
0,
1,
1,
0,
0,
0,
0,
0,
0,
0,
#ENDOFDATA   :