File: NeXLSpectrum/Pyrite fragments/Pyrite_1_F3_15kV10nA130kHz_114kHz_100s.msa
#FORMAT      : EMSA/MAS Spectral Data File
#VERSION     : 1.0
#TITLE       : Bruker Nano spectrum Acquisition
#DATE        : 23-AUG-2019
#TIME        : 11:19
#OWNER       : Bruker Nano
#NPOINTS     : 4096
#NCOLUMNS    : 1
#XUNITS      : eV
#YUNITS      : counts
#DATATYPE    : Y
#XPERCHAN    : 5.00257
#OFFSET      : -482.8305
#BEAMKV      : 15
#SIGNALTYPE  : EDS
#ELEVANGLE   : 40
#AZIMANGLE   : 45
#LIVETIME    : 100
#REALTIME    : 127.239
#PROBECUR    : 10
#TAUWIND     : 0
#TDEADLYR    : 0
#TACTLYR     : 0.045
#TALWIND     : 0.004
#CHOFFSET    : 0.0
#XLABEL      : Energy (eV)
#YLABEL      : Counts
#EDSDET      : SDUTW
##DET_HASH   : c6370f9e-cc72-7559-f57e-203d75c8942b
##CALIB_HASH : fcf71094-1a10-2882-685e-00197fff5925
##SAMPLE     : <BulkSample id="1">\n<mOrientation id="2">\n<double>0.0</double>\n<double>0.0</double>\n<double>-1.0</double>\n</mOrientation>\n</BulkSample>
#SPECTRUM    :
0,
0,
0,
0,
8,
30,
3082,
207045,
176,
3495,
1721,
10705,
1144,
1451,
4381,
5726,
12470,
52743,
5190,
3857,
3312,
3460,
3669,
3937,
4006,
4201,
4283,
4339,
4537,
4148,
4203,
4230,
4431,
4302,
4141,
4311,
4364,
4196,
5390,
74031,
252119,
33749,
20438,
7862,
2587,
2362,
2372,
2315,
2279,
2190,
2172,
2097,
2087,
1955,
2035,
1923,
1900,
1882,
1842,
1847,
1787,
1767,
1718,
1656,
1605,
1622,
1590,
1575,
1567,
1488,
1472,
1375,
1326,
1256,
1249,
1261,
1320,
1277,
1223,
1214,
1218,
1119,
1153,
1131,
1138,
1111,
991,
1036,
1044,
1042,
990,
1002,
970,
975,
966,
1037,
1597,
10183,
32331,
23684,
4434,
986,
815,
807,
785,
860,
1495,
3964,
4579,
1872,
782,
672,
601,
743,
715,
619,
625,
572,
555,
536,
506,
530,
490,
490,
518,
493,
510,
462,
439,
444,
434,
411,
422,
419,
407,
400,
425,
409,
404,
387,
371,
375,
363,
344,
349,
340,
323,
319,
318,
302,
304,
320,
268,
291,
268,
284,
261,
250,
240,
257,
248,
235,
235,
232,
212,
201,
226,
193,
210,
191,
186,
174,
162,
164,
172,
156,
163,
161,
168,
135,
146,
110,
102,
115,
121,
105,
111,
105,
101,
112,
98,
98,
105,
80,
76,
87,
67,
62,
53,
60,
57,
56,
51,
51,
49,
41,
30,
34,
36,
27,
28,
30,
24,
18,
18,
14,
12,
6,
5,
8,
3,
3,
1,
2,
0,
0,
0,
0,
0,
0,
1,
0,
0,
1,
0,
0,
0,
1,
2,
0,
0,
0,
0,
0,
0,
0,
0,
1,
2,
0,
0,
1,
0,
0,
0,
0,
0,
0,
1,
0,
0,
0,
0,
0,
0,
0,
0,
0,
0,
0,
0,
1,
0,
0,
0,
0,
0,
2,
0,
0,
0,
0,
0,
1,
1,
0,
0,
0,
1,
0,
0,
0,
0,
0,
#ENDOFDATA   :