File: NeXLSpectrum/Pyrite fragments/Pyrite_1_D1_15kV10nA130kHz_116kHz_100s.msa
#FORMAT      : EMSA/MAS Spectral Data File
#VERSION     : 1.0
#TITLE       : Bruker Nano spectrum Acquisition
#DATE        : 23-AUG-2019
#TIME        : 10:55
#OWNER       : Bruker Nano
#NPOINTS     : 4096
#NCOLUMNS    : 1
#XUNITS      : eV
#YUNITS      : counts
#DATATYPE    : Y
#XPERCHAN    : 5.00257
#OFFSET      : -482.8305
#BEAMKV      : 15
#SIGNALTYPE  : EDS
#ELEVANGLE   : 40
#AZIMANGLE   : 45
#LIVETIME    : 100
#REALTIME    : 127.679
#PROBECUR    : 10
#TAUWIND     : 0
#TDEADLYR    : 0
#TACTLYR     : 0.045
#TALWIND     : 0.004
#CHOFFSET    : 0.0
#XLABEL      : Energy (eV)
#YLABEL      : Counts
#EDSDET      : SDUTW
##DET_HASH   : c6370f9e-cc72-7559-f57e-203d75c8942b
##CALIB_HASH : fcf71094-1a10-2882-685e-00197fff5925
##SAMPLE     : <BulkSample id="1">\n<mOrientation id="2">\n<double>0.0</double>\n<double>0.0</double>\n<double>-1.0</double>\n</mOrientation>\n</BulkSample>
#SPECTRUM    :
0,
0,
0,
0,
9,
46,
3058,
207720,
165,
3529,
1590,
8745,
1177,
1478,
4645,
5672,
12245,
53488,
5269,
3423,
3365,
3501,
3688,
3970,
4192,
4373,
4277,
4488,
4617,
4353,
4105,
4258,
4415,
4296,
4228,
4343,
4475,
4326,
5492,
74648,
256092,
34561,
21284,
7965,
2608,
2363,
2365,
2287,
2247,
2263,
2246,
2147,
2156,
2133,
2048,
2061,
1932,
1950,
1874,
1859,
1828,
1811,
1739,
1700,
1679,
1705,
1617,
1595,
1491,
1552,
1446,
1429,
1369,
1251,
1274,
1310,
1301,
1335,
1286,
1227,
1195,
1193,
1125,
1201,
1121,
1124,
1073,
1098,
1030,
1021,
1021,
1057,
941,
978,
1011,
993,
1647,
10418,
33299,
24226,
4520,
1055,
871,
838,
880,
893,
1524,
3894,
4630,
1984,
796,
643,
657,
645,
659,
638,
572,
544,
598,
521,
523,
515,
568,
532,
501,
534,
468,
510,
498,
465,
422,
456,
421,
415,
412,
418,
415,
414,
416,
357,
355,
366,
355,
374,
360,
363,
309,
305,
316,
306,
287,
295,
294,
287,
284,
260,
264,
269,
272,
272,
265,
215,
245,
222,
201,
221,
212,
210,
204,
196,
195,
174,
169,
174,
163,
163,
140,
153,
174,
139,
150,
134,
139,
114,
108,
107,
110,
118,
90,
91,
96,
92,
94,
70,
83,
78,
81,
63,
62,
83,
73,
39,
53,
47,
40,
49,
43,
40,
27,
20,
31,
30,
23,
16,
16,
17,
16,
11,
10,
3,
5,
6,
0,
0,
1,
0,
0,
0,
0,
0,
0,
0,
2,
0,
0,
0,
0,
0,
0,
0,
0,
0,
0,
0,
0,
0,
1,
0,
1,
0,
0,
0,
0,
0,
0,
0,
0,
0,
1,
0,
0,
0,
0,
0,
0,
0,
0,
0,
0,
1,
0,
0,
0,
0,
0,
0,
0,
0,
0,
0,
0,
1,
1,
1,
1,
0,
1,
0,
0,
0,
0,
0,
0,
0,
#ENDOFDATA   :