File: NeXLSpectrum/Pyrite fragments/Pyrite_1_D2_15kV10nA130kHz_116kHz_100s.msa
#FORMAT      : EMSA/MAS Spectral Data File
#VERSION     : 1.0
#TITLE       : Bruker Nano spectrum Acquisition
#DATE        : 23-AUG-2019
#TIME        : 10:58
#OWNER       : Bruker Nano
#NPOINTS     : 4096
#NCOLUMNS    : 1
#XUNITS      : eV
#YUNITS      : counts
#DATATYPE    : Y
#XPERCHAN    : 5.00257
#OFFSET      : -482.8305
#BEAMKV      : 15
#SIGNALTYPE  : EDS
#ELEVANGLE   : 40
#AZIMANGLE   : 45
#LIVETIME    : 100
#REALTIME    : 127.721
#PROBECUR    : 10
#TAUWIND     : 0
#TDEADLYR    : 0
#TACTLYR     : 0.045
#TALWIND     : 0.004
#CHOFFSET    : 0.0
#XLABEL      : Energy (eV)
#YLABEL      : Counts
#EDSDET      : SDUTW
##DET_HASH   : c6370f9e-cc72-7559-f57e-203d75c8942b
##CALIB_HASH : fcf71094-1a10-2882-685e-00197fff5925
##SAMPLE     : <BulkSample id="1">\n<mOrientation id="2">\n<double>0.0</double>\n<double>0.0</double>\n<double>-1.0</double>\n</mOrientation>\n</BulkSample>
#SPECTRUM    :
0,
0,
0,
0,
12,
32,
3086,
207606,
164,
3487,
1583,
8789,
1152,
1517,
4500,
5787,
12327,
53404,
5235,
3453,
3355,
3496,
3769,
3948,
4189,
4292,
4484,
4422,
4518,
4363,
4242,
4200,
4375,
4216,
4170,
4289,
4415,
4293,
5488,
75056,
257015,
34557,
21037,
7999,
2593,
2346,
2327,
2273,
2299,
2265,
2214,
2191,
2066,
2088,
2059,
2028,
1965,
2019,
1913,
1860,
1861,
1795,
1778,
1719,
1705,
1655,
1637,
1577,
1554,
1523,
1511,
1459,
1378,
1264,
1324,
1329,
1299,
1327,
1304,
1264,
1240,
1227,
1150,
1138,
1169,
1172,
1117,
1095,
1053,
1003,
1024,
1002,
1008,
976,
990,
988,
1660,
10441,
32924,
24116,
4530,
973,
880,
858,
783,
906,
1487,
3943,
4723,
1949,
780,
655,
596,
650,
667,
596,
569,
563,
595,
552,
518,
570,
555,
527,
508,
524,
486,
458,
452,
449,
434,
427,
421,
435,
420,
456,
419,
448,
414,
360,
360,
365,
358,
357,
338,
358,
315,
364,
351,
303,
321,
287,
272,
297,
277,
262,
264,
251,
253,
252,
262,
242,
217,
222,
196,
182,
238,
191,
188,
177,
202,
202,
177,
159,
158,
178,
155,
160,
142,
131,
134,
154,
109,
99,
124,
137,
93,
95,
93,
105,
93,
95,
84,
83,
77,
80,
79,
59,
52,
65,
52,
53,
42,
48,
48,
56,
37,
37,
35,
26,
26,
27,
19,
12,
10,
12,
16,
9,
11,
8,
2,
4,
2,
0,
0,
1,
0,
1,
0,
0,
0,
0,
3,
0,
2,
0,
0,
0,
0,
0,
0,
0,
0,
0,
0,
0,
0,
0,
1,
0,
0,
0,
0,
0,
1,
0,
1,
0,
0,
0,
0,
0,
0,
0,
0,
0,
0,
0,
0,
0,
0,
0,
0,
0,
0,
0,
0,
0,
1,
0,
0,
0,
0,
1,
0,
0,
0,
0,
0,
1,
0,
0,
1,
0,
#ENDOFDATA   :