File: NeXLSpectrum/Pyrite fragments/Pyrite_1_A2_15kV10nA130kHz_8kHz_100s.msa
#FORMAT      : EMSA/MAS Spectral Data File
#VERSION     : 1.0
#TITLE       : Bruker Nano spectrum Acquisition
#DATE        : 23-AUG-2019
#TIME        : 10:32
#OWNER       : Bruker Nano
#NPOINTS     : 4096
#NCOLUMNS    : 1
#XUNITS      : eV
#YUNITS      : counts
#DATATYPE    : Y
#XPERCHAN    : 5.00257
#OFFSET      : -482.8305
#BEAMKV      : 15
#SIGNALTYPE  : EDS
#ELEVANGLE   : 40
#AZIMANGLE   : 45
#LIVETIME    : 100
#REALTIME    : 101.174
#PROBECUR    : 10
#TAUWIND     : 0
#TDEADLYR    : 0
#TACTLYR     : 0.045
#TALWIND     : 0.004
#CHOFFSET    : 0.0
#XLABEL      : Energy (eV)
#YLABEL      : Counts
#EDSDET      : SDUTW
##DET_HASH   : c6370f9e-cc72-7559-f57e-203d75c8942b
##CALIB_HASH : fcf71094-1a10-2882-685e-00197fff5925
##SAMPLE     : <BulkSample id="1">\n<mOrientation id="2">\n<double>0.0</double>\n<double>0.0</double>\n<double>-1.0</double>\n</mOrientation>\n</BulkSample>
#SPECTRUM    :
0,
0,
0,
0,
0,
0,
187,
13688,
2,
135,
2894,
37299,
150,
118,
914,
341,
285,
1098,
261,
374,
302,
237,
269,
239,
277,
284,
268,
264,
252,
201,
221,
221,
264,
223,
186,
209,
200,
200,
207,
1200,
3859,
577,
395,
221,
145,
127,
132,
122,
120,
114,
104,
101,
107,
112,
117,
100,
107,
87,
98,
99,
124,
89,
86,
92,
76,
70,
71,
52,
50,
66,
63,
62,
54,
60,
51,
65,
59,
43,
53,
62,
48,
41,
49,
51,
51,
54,
53,
42,
45,
35,
51,
58,
38,
43,
46,
47,
60,
196,
607,
476,
114,
28,
35,
26,
29,
30,
45,
84,
105,
54,
31,
24,
33,
37,
31,
24,
22,
26,
19,
28,
21,
30,
18,
20,
14,
20,
22,
17,
19,
20,
19,
22,
17,
20,
19,
19,
17,
20,
18,
11,
10,
10,
17,
13,
14,
13,
17,
7,
12,
10,
8,
10,
12,
6,
16,
13,
11,
12,
11,
11,
5,
12,
14,
10,
12,
7,
5,
13,
7,
6,
4,
8,
8,
10,
4,
11,
6,
4,
4,
9,
8,
4,
6,
7,
4,
6,
6,
5,
6,
5,
6,
4,
3,
1,
6,
1,
4,
5,
4,
4,
6,
1,
3,
7,
6,
2,
3,
7,
5,
5,
2,
1,
1,
0,
0,
0,
3,
0,
2,
1,
0,
0,
1,
1,
0,
0,
0,
0,
0,
0,
0,
0,
0,
0,
0,
0,
0,
0,
0,
0,
0,
0,
0,
0,
0,
0,
0,
0,
0,
0,
0,
0,
0,
0,
0,
0,
0,
0,
0,
0,
0,
0,
0,
0,
0,
0,
0,
0,
0,
0,
0,
0,
0,
0,
0,
0,
0,
0,
0,
0,
0,
0,
0,
0,
0,
0,
0,
0,
0,
0,
0,
0,
0,
0,
#ENDOFDATA   :