File: NeXLSpectrum/Pyrite fragments/Pyrite_1_H2_15kV10nA130kHz_33kHz_100s.msa
#FORMAT      : EMSA/MAS Spectral Data File
#VERSION     : 1.0
#TITLE       : Bruker Nano spectrum Acquisition
#DATE        : 23-AUG-2019
#TIME        : 00:15
#OWNER       : Bruker Nano
#NPOINTS     : 4096
#NCOLUMNS    : 1
#XUNITS      : eV
#YUNITS      : counts
#DATATYPE    : Y
#XPERCHAN    : 5.00257
#OFFSET      : -482.8305
#BEAMKV      : 15
#SIGNALTYPE  : EDS
#ELEVANGLE   : 40
#AZIMANGLE   : 45
#LIVETIME    : 100
#REALTIME    : 106.253
#PROBECUR    : 10
#TAUWIND     : 0
#TDEADLYR    : 0
#TACTLYR     : 0.045
#TALWIND     : 0.004
#CHOFFSET    : 0.0
#XLABEL      : Energy (eV)
#YLABEL      : Counts
#EDSDET      : SDUTW
##DET_HASH   : c6370f9e-cc72-7559-f57e-203d75c8942b
##CALIB_HASH : fcf71094-1a10-2882-685e-00197fff5925
##SAMPLE     : <BulkSample id="1">\n<mOrientation id="2">\n<double>0.0</double>\n<double>0.0</double>\n<double>-1.0</double>\n</mOrientation>\n</BulkSample>
#SPECTRUM    :
0,
0,
0,
0,
0,
3,
768,
55618,
11,
168,
267,
2140,
221,
242,
2691,
987,
742,
3372,
362,
333,
328,
266,
337,
358,
383,
449,
432,
465,
526,
529,
485,
562,
582,
616,
615,
737,
795,
789,
1072,
17338,
60954,
8074,
5084,
1550,
355,
333,
342,
364,
358,
408,
387,
421,
409,
405,
438,
441,
415,
447,
486,
482,
485,
504,
496,
486,
553,
528,
557,
532,
549,
572,
540,
585,
554,
526,
545,
575,
570,
574,
635,
604,
596,
627,
639,
584,
649,
639,
625,
630,
634,
604,
591,
620,
595,
620,
598,
663,
1105,
7082,
23108,
16967,
3114,
665,
575,
604,
621,
636,
1191,
3042,
3540,
1326,
385,
306,
306,
347,
315,
313,
292,
324,
307,
294,
300,
353,
328,
319,
312,
299,
291,
287,
301,
284,
273,
276,
277,
286,
265,
263,
282,
269,
249,
273,
241,
257,
267,
315,
252,
247,
259,
231,
235,
224,
250,
233,
232,
223,
213,
232,
214,
228,
210,
212,
204,
201,
191,
191,
188,
174,
177,
150,
156,
149,
152,
138,
129,
142,
126,
142,
127,
129,
112,
120,
120,
119,
97,
104,
118,
112,
106,
97,
89,
91,
84,
78,
87,
82,
68,
59,
64,
67,
64,
66,
64,
67,
55,
37,
51,
37,
30,
33,
31,
34,
27,
26,
24,
18,
22,
12,
22,
6,
12,
9,
8,
6,
4,
0,
0,
0,
0,
0,
0,
1,
0,
0,
0,
0,
0,
0,
0,
0,
0,
0,
0,
0,
0,
0,
3,
0,
0,
0,
0,
0,
1,
0,
0,
0,
0,
0,
0,
1,
1,
0,
0,
0,
0,
0,
0,
0,
0,
0,
2,
0,
0,
0,
0,
0,
0,
0,
0,
0,
0,
1,
0,
0,
0,
0,
0,
0,
0,
0,
0,
0,
0,
0,
0,
0,
#ENDOFDATA   :